Wavenumber (cm^-1),Transmittance (%)
599.782800,69.676592
601.711300,70.399537
603.639900,71.124725
605.568400,71.812327
607.497000,72.508764
609.425600,73.201672
611.354100,73.846514
613.282700,74.496368
615.211200,75.182316
617.139800,75.824194
619.068400,76.434565
620.996900,77.045646
622.925500,77.653851
624.854100,78.194931
626.782700,78.705521
628.711200,79.224845
630.639800,79.737846
632.568300,80.250704
634.496900,80.739808
636.425400,81.164243
638.354000,81.576316
640.282600,81.892617
642.211100,82.126830
644.139700,82.364277
646.068200,82.767935
647.996800,83.287161
649.925400,83.665301
651.853900,83.881643
653.782500,84.008355
655.711100,84.128177
657.639600,84.152560
659.568200,83.968547
661.496800,83.808344
663.425300,84.017414
665.353900,84.822172
667.282400,86.294662
669.211000,86.446776
671.139600,85.863760
673.068100,85.822071
674.996700,85.685398
676.925200,85.350390
678.853800,84.660506
680.782300,83.486328
682.710900,81.084434
684.639500,75.726607
686.568100,63.527183
688.496600,41.787183
690.425200,20.097054
692.353800,20.189799
694.282300,41.721998
696.210900,61.860126
698.139400,73.241090
700.068000,79.258619
701.996600,82.532215
703.925100,84.219471
705.853700,85.014358
707.782200,85.377468
709.710800,85.602118
711.639300,85.701549
713.567900,85.670245
715.496500,85.399046
717.425000,84.804623
719.353600,83.805762
721.282200,82.342119
723.210800,80.389865
725.139300,78.640506
727.067900,77.296975
728.996400,74.808475
730.925000,70.029786
732.853500,62.191381
734.782100,50.311736
736.710700,34.305978
738.639200,17.722174
740.567800,6.773716
742.496300,2.865444
744.424900,3.512958
746.353500,8.639528
748.282000,20.019725
750.210600,35.387387
752.139200,49.020699
754.067700,57.459256
755.996300,60.562947
757.924900,58.971381
759.853400,52.945859
761.782000,42.519554
763.710500,28.659103
765.639100,15.117160
767.567700,6.811896
769.496200,4.736832
771.424800,7.905148
773.353300,16.768496
775.281900,30.518607
777.210400,45.160797
779.139000,56.873506
781.067600,64.289937
782.996200,67.823313
784.924700,67.931484
786.853300,64.342866
788.781900,56.040280
790.710400,42.384777
792.639000,25.902322
794.567500,13.379947
796.496100,11.043072
798.424700,21.337641
800.353200,40.415690
802.281800,58.544122
804.210300,70.385727
806.138900,77.140278
808.067400,81.087179
809.996000,83.519839
811.924600,85.103265
813.853100,86.165821
815.781700,86.923209
817.710300,87.533467
819.638900,88.075823
821.567400,88.444213
823.496000,88.427216
825.424500,87.918514
827.353100,87.736422
829.281700,88.435073
831.210200,88.975884
833.138800,89.033497
835.067300,88.987212
836.995900,89.073476
838.924400,89.372855
840.853000,89.785846
842.781600,90.155696
844.710100,90.408125
846.638700,90.528624
848.567300,90.542095
850.495800,90.449977
852.424400,90.257336
854.353000,89.980448
856.281500,89.657344
858.210100,89.320291
860.138600,89.036383
862.067200,88.837713
863.995800,88.581608
865.924300,87.935347
867.852900,86.516247
869.781400,83.800982
871.710000,79.525284
873.638500,74.828235
875.567100,72.341915
877.495700,73.235626
879.424300,76.033818
881.352800,79.044562
883.281400,81.660260
885.210000,83.760812
887.138500,85.327236
889.067100,86.414595
890.995600,87.164218
892.924200,87.688003
894.852800,88.021890
896.781300,88.018927
898.709900,87.529517
900.638400,86.158026
902.567000,83.088294
904.495500,80.056817
906.424100,82.117145
908.352700,86.990669
910.281300,89.639394
912.209800,90.547282
914.138400,90.861441
916.067000,90.963399
917.995500,90.926114
919.924100,90.860410
921.852600,90.707442
923.781200,90.453257
925.709800,89.980160
927.638300,89.215832
929.566900,88.258796
931.495400,87.714199
933.424000,87.939194
935.352500,88.559399
937.281100,89.029208
939.209700,89.242106
941.138200,89.297214
943.066800,89.380992
944.995400,89.484954
946.924000,89.531298
948.852500,89.485267
950.781100,89.395035
952.709600,89.217116
954.638200,88.931120
956.566700,88.512229
958.495300,88.032450
960.423900,87.532889
962.352400,87.055413
964.281000,86.577380
966.209500,86.141669
968.138100,85.799107
970.066700,85.621109
971.995200,85.526494
973.923800,85.374633
975.852400,84.973679
977.780900,84.155625
979.709500,82.680046
981.638100,80.457681
983.566600,78.094275
985.495200,77.280870
987.423700,78.666875
989.352300,80.752376
991.280900,82.250993
993.209400,83.156494
995.138000,83.603775
997.066500,83.616630
998.995100,83.353224
1000.924000,83.076980
1002.852000,82.726563
1004.781000,82.076105
1006.709000,80.990927
1008.638000,79.489159
1010.566000,77.601533
1012.495000,75.432170
1014.424000,72.912435
1016.352000,69.898909
1018.281000,65.886312
1020.209000,60.572165
1022.138000,57.173990
1024.066000,59.830964
1025.995000,64.993975
1027.924000,67.849164
1029.852000,68.257236
1031.781000,67.069242
1033.709000,64.899358
1035.638000,62.291860
1037.566000,59.954143
1039.495000,58.512277
1041.423000,58.381157
1043.352000,59.351828
1045.281000,60.857821
1047.209000,61.869556
1049.138000,60.316759
1051.066000,55.279448
1052.995000,54.495733
1054.923000,63.038374
1056.852000,72.058962
1058.781000,77.047260
1060.709000,79.815539
1062.638000,81.753034
1064.566000,83.248179
1066.495000,84.433490
1068.423000,85.313420
1070.352000,85.986527
1072.281000,86.467561
1074.209000,86.821579
1076.138000,87.022805
1078.066000,87.100005
1079.995000,87.000466
1081.923000,86.701911
1083.852000,86.086470
1085.780000,84.949898
1087.709000,82.930690
1089.638000,79.647953
1091.566000,74.735750
1093.495000,69.635388
1095.423000,69.162136
1097.352000,73.620540
1099.280000,77.136868
1101.209000,78.019022
1103.137000,78.461553
1105.066000,80.031412
1106.995000,81.754198
1108.923000,82.524771
1110.852000,81.988521
1112.780000,79.978370
1114.709000,75.763477
1116.637000,68.787021
1118.566000,61.322126
1120.495000,60.725724
1122.423000,68.548002
1124.352000,76.983048
1126.280000,81.874374
1128.209000,84.396170
1130.137000,85.938959
1132.066000,87.027068
1133.995000,87.710628
1135.923000,88.078764
1137.852000,88.146055
1139.780000,87.941788
1141.709000,87.415112
1143.637000,86.903639
1145.566000,86.892918
1147.494000,87.303855
1149.423000,87.468984
1151.352000,87.150449
1153.280000,86.096378
1155.209000,84.245470
1157.137000,83.064530
1159.066000,84.246565
1160.994000,85.749329
1162.923000,86.133747
1164.851000,85.192360
1166.780000,81.664532
1168.709000,75.135953
1170.637000,73.657606
1172.566000,80.142960
1174.494000,85.368223
1176.423000,87.201906
1178.351000,87.697162
1180.280000,87.672379
1182.208000,87.421584
1184.137000,87.361292
1186.066000,87.841829
1187.994000,88.866126
1189.923000,89.717034
1191.851000,90.188159
1193.780000,90.436328
1195.708000,90.575006
1197.637000,90.636626
1199.566000,90.669945
1201.494000,90.712887
1203.423000,90.779783
1205.351000,90.875196
1207.280000,90.965079
1209.208000,90.999298
1211.137000,90.868632
1213.066000,90.470625
1214.994000,89.527057
1216.923000,87.366173
1218.851000,84.111493
1220.780000,82.980504
1222.708000,84.810390
1224.637000,87.043188
1226.565000,88.897807
1228.494000,90.059753
1230.423000,90.654701
1232.351000,90.979199
1234.280000,91.165544
1236.208000,91.122906
1238.137000,90.914690
1240.065000,90.634347
1241.994000,90.389137
1243.922000,90.171962
1245.851000,89.948043
1247.780000,89.592144
1249.708000,89.412420
1251.637000,89.950556
1253.565000,90.820379
1255.494000,91.348132
1257.422000,91.555608
1259.351000,91.578758
1261.280000,91.474116
1263.208000,91.234341
1265.137000,91.007790
1267.065000,91.012688
1268.994000,91.151955
1270.922000,91.184771
1272.851000,91.121286
1274.779000,91.014331
1276.708000,90.923264
1278.637000,90.851246
1280.565000,90.790360
1282.494000,90.701475
1284.422000,90.542716
1286.351000,90.228841
1288.279000,89.743411
1290.208000,89.388955
1292.137000,89.507169
1294.065000,89.832222
1295.994000,90.060580
1297.922000,90.155231
1299.851000,90.145871
1301.779000,90.041576
1303.708000,89.858205
1305.636000,89.663319
1307.565000,89.562288
1309.494000,89.518870
1311.422000,89.446772
1313.351000,89.327229
1315.279000,89.158974
1317.208000,88.937703
1319.136000,88.668563
1321.065000,88.387496
1322.994000,88.188730
1324.922000,88.089714
1326.851000,88.030131
1328.779000,87.938297
1330.708000,87.767616
1332.636000,87.513123
1334.565000,87.245639
1336.493000,87.031063
1338.422000,86.835146
1340.351000,86.563518
1342.279000,86.226776
1344.208000,85.883396
1346.136000,85.519458
1348.065000,85.107358
1349.993000,84.645189
1351.922000,84.142145
1353.850000,83.617131
1355.779000,83.042929
1357.708000,82.368053
1359.636000,81.544509
1361.565000,80.498891
1363.493000,79.140903
1365.422000,77.523327
1367.350000,75.623383
1369.279000,72.704200
1371.208000,67.655234
1373.136000,60.771464
1375.065000,54.718502
1376.993000,52.119699
1378.922000,52.790199
1380.850000,54.116039
1382.779000,54.394965
1384.708000,56.373240
1386.636000,61.615333
1388.565000,66.772141
1390.493000,69.788731
1392.422000,71.290293
1394.350000,72.025420
1396.279000,72.252437
1398.207000,72.225624
1400.136000,71.986805
1402.065000,71.540373
1403.993000,70.938091
1405.922000,70.190801
1407.850000,69.456149
1409.779000,68.880993
1411.707000,68.321375
1413.636000,67.542029
1415.564000,66.402404
1417.493000,65.010065
1419.422000,63.542076
1421.350000,62.226919
1423.279000,61.262498
1425.207000,60.286837
1427.136000,58.923577
1429.064000,57.042914
1430.993000,54.710099
1432.922000,52.143491
1434.850000,49.321514
1436.779000,45.930059
1438.707000,42.135194
1440.636000,38.726977
1442.564000,36.291590
1444.493000,34.851719
1446.422000,33.769435
1448.350000,32.388863
1450.279000,30.380436
1452.207000,27.818628
1454.136000,25.600798
1456.064000,24.935346
1457.993000,25.690278
1459.921000,26.327335
1461.850000,25.668116
1463.779000,23.481444
1465.707000,21.359599
1467.636000,22.447527
1469.564000,27.210492
1471.493000,32.392249
1473.421000,35.510755
1475.350000,36.428258
1477.278000,36.159482
1479.207000,35.628497
1481.136000,35.682683
1483.064000,36.331196
1484.993000,36.452994
1486.921000,34.631133
1488.850000,30.511545
1490.778000,25.030631
1492.707000,20.160022
1494.635000,18.106366
1496.564000,19.702312
1498.493000,24.455503
1500.421000,32.286272
1502.350000,40.897268
1504.278000,47.031616
1506.207000,49.644793
1508.135000,48.849767
1510.064000,45.425979
1511.993000,39.175153
1513.921000,28.916785
1515.850000,20.491686
1517.778000,24.754787
1519.707000,39.344896
1521.635000,52.642560
1523.564000,60.376189
1525.493000,64.727868
1527.421000,67.332308
1529.350000,68.895919
1531.278000,69.905509
1533.207000,70.502010
1535.135000,70.755304
1537.064000,71.357479
1538.992000,72.570080
1540.921000,73.638647
1542.850000,74.454131
1544.778000,75.229937
1546.707000,75.927902
1548.635000,76.577820
1550.564000,77.179809
1552.492000,77.738919
1554.421000,78.298114
1556.349000,78.836167
1558.278000,79.501591
1560.207000,79.718084
1562.135000,79.664097
1564.064000,79.748560
1565.992000,79.867246
1567.921000,80.043481
1569.849000,80.206325
1571.778000,80.115742
1573.707000,79.997147
1575.635000,79.674917
1577.564000,78.679230
1579.492000,77.255267
1581.421000,75.869426
1583.349000,74.840917
1585.278000,73.918799
1587.207000,71.729334
1589.135000,67.495870
1591.064000,63.198795
1592.992000,63.345869
1594.921000,66.797283
1596.849000,67.927996
1598.778000,65.404164
1600.706000,60.498736
1602.635000,54.222857
1604.564000,48.057093
1606.492000,44.320566
1608.421000,44.018050
1610.349000,44.104226
1612.278000,41.673445
1614.206000,41.349618
1616.135000,50.151786
1618.063000,63.818531
1619.992000,73.732133
1621.921000,79.031696
1623.849000,81.389511
1625.778000,82.141213
1627.706000,82.206048
1629.635000,82.323135
1631.563000,83.119146
1633.492000,84.589693
1635.421000,86.174506
1637.349000,87.295563
1639.278000,88.127967
1641.206000,88.789255
1643.135000,89.250293
1645.063000,89.635311
1646.992000,89.717729
1648.921000,89.466564
1650.849000,89.435564
1652.778000,89.591247
1654.706000,89.169783
1656.635000,88.805571
1658.563000,88.746928
1660.492000,88.860907
1662.420000,89.062122
1664.349000,89.137420
1666.278000,89.247812
1668.206000,89.583416
1670.135000,89.834691
1672.063000,89.962520
1673.992000,90.354634
1675.920000,90.807705
1677.849000,91.178157
1679.777000,91.715511
1681.706000,92.345837
1683.635000,93.041795
1685.563000,93.229516
1687.492000,93.135901
1689.420000,93.073092
1691.349000,92.979047
1693.277000,93.113185
1695.206000,93.554788
1697.135000,93.768228
1699.063000,94.032857
1700.992000,94.036741
1702.920000,93.577856
1704.849000,93.220700
1706.777000,92.937586
1708.706000,92.955179
1710.635000,93.054648
1712.563000,93.044312
1714.492000,92.971573
1716.420000,92.934244
1718.349000,92.789990
1720.277000,92.593355
1722.206000,92.595626
1724.134000,92.625921
1726.063000,92.578023
1727.992000,92.541122
1729.920000,92.534327
1731.849000,92.613317
1733.777000,92.664447
1735.706000,92.233492
1737.634000,91.776259
1739.563000,91.476538
1741.491000,91.107498
1743.420000,90.816366
1745.349000,90.639082
1747.277000,90.624973
1749.206000,90.758130
1751.134000,90.952573
1753.063000,91.048788
1754.991000,91.180794
1756.920000,91.258211
1758.849000,91.151553
1760.777000,90.970715
1762.706000,90.629614
1764.634000,90.254462
1766.563000,90.079783
1768.491000,89.975913
1770.420000,89.916584
1772.349000,89.850353
1774.277000,89.568252
1776.206000,89.270252
1778.134000,88.971602
1780.063000,88.606063
1781.991000,88.124314
1783.920000,87.600876
1785.848000,87.098300
1787.777000,86.776300
1789.706000,86.841393
1791.634000,87.318567
1793.563000,88.034556
1795.491000,88.959383
1797.420000,90.052350
1799.348000,91.086916
1801.277000,91.918287
1803.205000,92.500751
1805.134000,92.909390
1807.063000,93.185449
1808.991000,93.382436
1810.920000,93.503259
1812.848000,93.555967
1814.777000,93.559754
1816.705000,93.508554
1818.634000,93.339633
1820.563000,93.068640
1822.491000,92.728900
1824.420000,92.370571
1826.348000,91.973946
1828.277000,91.708437
1830.205000,91.570400
1832.134000,91.467641
1834.063000,91.448699
1835.991000,91.429160
1837.920000,91.333197
1839.848000,91.140624
1841.777000,90.910658
1843.705000,90.658154
1845.634000,90.208778
1847.562000,89.686693
1849.491000,89.158596
1851.420000,88.647604
1853.348000,88.229661
1855.277000,87.957938
1857.205000,87.888846
1859.134000,88.060807
1861.062000,88.485663
1862.991000,89.111259
1864.919000,89.858946
1866.848000,90.600687
1868.777000,91.141034
1870.705000,91.355401
1872.634000,91.318525
1874.562000,91.044285
1876.491000,90.503637
1878.419000,89.752563
1880.348000,88.908968
1882.276000,88.155995
1884.205000,87.452142
1886.134000,86.581666
1888.062000,85.618929
1889.991000,84.823367
1891.919000,84.444263
1893.848000,84.580315
1895.776000,85.046284
1897.705000,85.632793
1899.634000,86.256901
1901.562000,86.935465
1903.491000,87.701778
1905.419000,88.606010
1907.348000,89.583418
1909.276000,90.419119
1911.205000,91.009878
1913.134000,91.428257
1915.062000,91.701164
1916.991000,91.817066
1918.919000,91.690470
1920.848000,91.349680
1922.776000,90.867305
1924.705000,90.279162
1926.633000,89.711000
1928.562000,89.210801
1930.491000,88.789721
1932.419000,88.485388
1934.348000,88.331365
1936.276000,88.333415
1938.205000,88.497801
1940.133000,88.846450
1942.062000,89.376983
1943.990000,90.021990
1945.919000,90.746257
1947.848000,91.484471
1949.776000,92.139459
1951.705000,92.659608
1953.633000,93.063982
1955.562000,93.438382
1957.490000,93.847600
1959.419000,94.248240
1961.348000,94.543194
1963.276000,94.712125
1965.205000,94.808405
1967.133000,94.882699
1969.062000,94.939386
1970.990000,94.996547
1972.919000,95.070743
1974.848000,95.158577
1976.776000,95.235819
1978.705000,95.292618
1980.633000,95.331615
1982.562000,95.363366
1984.490000,95.394352
1986.419000,95.422102
1988.347000,95.436220
1990.276000,95.425552
1992.205000,95.380600
1994.133000,95.258377
1996.062000,95.204499
1997.990000,95.339298
1999.919000,95.458912
2001.847000,95.560226
2003.776000,95.666122
2005.704000,95.760739
2007.633000,95.826357
2009.562000,95.867868
2011.490000,95.890362
2013.419000,95.914205
2015.347000,95.935199
2017.276000,95.940063
2019.204000,95.911190
2021.133000,95.859873
2023.062000,95.834601
2024.990000,95.905051
2026.919000,96.032700
2028.847000,96.121927
2030.776000,96.136417
2032.704000,96.100921
2034.633000,96.065764
2036.562000,96.082807
2038.490000,96.129462
2040.419000,96.167049
2042.347000,96.169197
2044.276000,96.140558
2046.204000,96.118979
2048.133000,96.157019
2050.062000,96.241078
2051.990000,96.328669
2053.918000,96.383892
2055.847000,96.410679
2057.776000,96.421313
2059.704000,96.424477
2061.633000,96.420074
2063.561000,96.409258
2065.490000,96.352946
2067.418000,96.273050
2069.347000,96.206711
2071.276000,96.086167
2073.204000,95.908063
2075.133000,95.784823
2077.061000,95.830665
2078.990000,95.966737
2080.918000,96.083337
2082.847000,96.162180
2084.776000,96.198070
2086.704000,96.196606
2088.633000,96.167056
2090.561000,96.114186
2092.490000,96.004743
2094.418000,95.808284
2096.347000,95.497959
2098.275000,95.150291
2100.204000,94.963845
2102.133000,95.056605
2104.061000,95.289672
2105.990000,95.501418
2107.918000,95.688743
2109.847000,95.862381
2111.775000,95.964247
2113.704000,95.990353
2115.633000,95.979526
2117.561000,96.004991
2119.490000,96.114841
2121.418000,96.256151
2123.347000,96.348325
2125.275000,96.392830
2127.204000,96.415183
2129.133000,96.438430
2131.061000,96.459825
2132.990000,96.467624
2134.918000,96.458479
2136.847000,96.434999
2138.775000,96.394850
2140.704000,96.348875
2142.632000,96.305249
2144.561000,96.257075
2146.490000,96.203417
2148.418000,96.156529
2150.347000,96.124340
2152.275000,96.104057
2154.204000,96.094106
2156.132000,96.113743
2158.061000,96.163792
2159.990000,96.222676
2161.918000,96.262895
2163.847000,96.271002
2165.775000,96.245867
2167.704000,96.202430
2169.632000,96.167689
2171.561000,96.165200
2173.490000,96.179060
2175.418000,96.198752
2177.346000,96.215850
2179.275000,96.224052
2181.204000,96.210249
2183.132000,96.174098
2185.061000,96.135969
2186.989000,96.111459
2188.918000,96.102114
2190.846000,96.092685
2192.775000,96.048196
2194.704000,95.937262
2196.632000,95.750787
2198.561000,95.560299
2200.489000,95.479701
2202.418000,95.483770
2204.346000,95.495048
2206.275000,95.511701
2208.204000,95.500947
2210.132000,95.493086
2212.061000,95.552809
2213.989000,95.678271
2215.918000,95.804838
2217.846000,95.900833
2219.775000,95.967071
2221.703000,96.007115
2223.632000,96.012352
2225.561000,95.991854
2227.489000,95.970291
2229.418000,95.978900
2231.346000,96.012469
2233.275000,96.046221
2235.203000,96.068845
2237.132000,96.095248
2239.061000,96.133178
2240.989000,96.170216
2242.918000,96.192920
2244.846000,96.199231
2246.775000,96.184059
2248.703000,96.153583
2250.632000,96.108575
2252.561000,96.050684
2254.489000,95.971418
2256.417000,95.863568
2258.346000,95.730434
2260.275000,95.582382
2262.203000,95.419009
2264.132000,95.295927
2266.060000,95.281929
2267.989000,95.323204
2269.917000,95.301437
2271.846000,95.175240
2273.775000,94.968881
2275.703000,94.720015
2277.632000,94.479999
2279.560000,94.331761
2281.489000,94.341525
2283.417000,94.508306
2285.346000,94.764187
2287.275000,95.014131
2289.203000,95.190980
2291.132000,95.280990
2293.060000,95.300393
2294.989000,95.260953
2296.917000,95.158163
2298.846000,94.981753
2300.774000,94.720218
2302.703000,94.500185
2304.632000,94.574181
2306.560000,94.942869
2308.489000,95.310992
2310.417000,95.509555
2312.346000,95.579301
2314.274000,95.615487
2316.203000,95.715107
2318.132000,95.927198
2320.060000,96.146753
2321.989000,96.225020
2323.917000,96.063428
2325.846000,95.775218
2327.774000,95.666878
2329.703000,95.752244
2331.632000,95.762898
2333.560000,95.639223
2335.489000,95.445112
2337.417000,95.134178
2339.346000,94.782264
2341.274000,94.738510
2343.203000,95.152907
2345.131000,95.583025
2347.060000,95.621348
2348.989000,95.694670
2350.917000,96.201741
2352.846000,96.775492
2354.774000,97.139515
2356.703000,97.341201
2358.631000,97.470863
2360.560000,97.545341
2362.489000,97.572731
2364.417000,97.538412
2366.346000,97.437129
2368.274000,97.267094
2370.203000,97.021316
2372.131000,96.710079
2374.060000,96.358575
2375.989000,96.008159
2377.917000,95.700373
2379.845000,95.453694
2381.774000,95.268935
2383.703000,95.123222
2385.631000,95.001007
2387.560000,94.891655
2389.488000,94.774934
2391.417000,94.642013
2393.345000,94.481831
2395.274000,94.283870
2397.203000,94.077095
2399.131000,93.923950
2401.060000,93.845929
2402.988000,93.812885
2404.917000,93.797067
2406.845000,93.810504
2408.774000,93.839285
2410.703000,93.846863
2412.631000,93.821679
2414.560000,93.781035
2416.488000,93.750046
2418.417000,93.739953
2420.345000,93.747972
2422.274000,93.784218
2424.202000,93.836822
2426.131000,93.853519
2428.060000,93.803951
2429.988000,93.742144
2431.917000,93.776491
2433.845000,93.928031
2435.774000,94.098147
2437.702000,94.213461
2439.631000,94.261640
2441.560000,94.241350
2443.488000,94.171186
2445.417000,94.111035
2447.345000,94.141907
2449.274000,94.277136
2451.202000,94.431139
2453.131000,94.529106
2455.060000,94.552904
2456.988000,94.511205
2458.917000,94.417416
2460.845000,94.332914
2462.774000,94.322829
2464.702000,94.376351
2466.631000,94.418351
2468.559000,94.395419
2470.488000,94.295446
2472.417000,94.162008
2474.345000,94.119077
2476.274000,94.243145
2478.202000,94.442799
2480.131000,94.615943
2482.059000,94.740772
2483.988000,94.828179
2485.917000,94.896495
2487.845000,94.956107
2489.774000,95.008452
2491.702000,95.064778
2493.631000,95.122507
2495.559000,95.180131
2497.488000,95.237520
2499.416000,95.290051
2501.345000,95.329203
2503.273000,95.358533
2505.202000,95.364903
2507.131000,95.352907
2509.059000,95.348431
2510.988000,95.390106
2512.916000,95.476724
2514.845000,95.575357
2516.773000,95.647951
2518.702000,95.694597
2520.631000,95.713315
2522.559000,95.696845
2524.488000,95.627000
2526.416000,95.480196
2528.345000,95.255985
2530.273000,95.025501
2532.202000,94.887423
2534.131000,94.872562
2536.059000,94.993699
2537.988000,95.218411
2539.916000,95.429445
2541.845000,95.561661
2543.773000,95.614560
2545.702000,95.625584
2547.630000,95.616480
2549.559000,95.584753
2551.488000,95.519775
2553.416000,95.403604
2555.345000,95.230799
2557.273000,95.069145
2559.202000,95.014827
2561.130000,95.056671
2563.059000,95.069835
2564.988000,95.000821
2566.916000,94.884005
2568.845000,94.767115
2570.773000,94.663213
2572.702000,94.513634
2574.630000,94.237943
2576.559000,93.829513
2578.487000,93.396803
2580.416000,93.149331
2582.344000,93.230319
2584.273000,93.533488
2586.202000,93.837217
2588.130000,94.060566
2590.059000,94.247843
2591.987000,94.406444
2593.916000,94.473766
2595.844000,94.488334
2597.773000,94.548909
2599.702000,94.658291
2601.630000,94.720624
2603.559000,94.713488
2605.487000,94.700746
2607.416000,94.758082
2609.344000,94.875645
2611.273000,94.998365
2613.202000,95.111835
2615.130000,95.199159
2617.059000,95.218466
2618.987000,95.174133
2620.916000,95.089976
2622.844000,94.999857
2624.773000,94.948782
2626.701000,94.975850
2628.630000,95.063557
2630.559000,95.153323
2632.487000,95.195592
2634.416000,95.173037
2636.344000,95.114533
2638.273000,95.103445
2640.201000,95.177374
2642.130000,95.275308
2644.059000,95.342367
2645.987000,95.373998
2647.916000,95.384859
2649.844000,95.376295
2651.773000,95.345978
2653.701000,95.310406
2655.630000,95.274832
2657.558000,95.243867
2659.487000,95.219843
2661.416000,95.210843
2663.344000,95.218510
2665.273000,95.242814
2667.201000,95.256131
2669.130000,95.237402
2671.058000,95.199626
2672.987000,95.159730
2674.916000,95.125351
2676.844000,95.092939
2678.773000,95.060414
2680.701000,95.037943
2682.630000,95.029956
2684.558000,95.025086
2686.487000,95.007415
2688.416000,94.962008
2690.344000,94.887401
2692.272000,94.793884
2694.201000,94.684661
2696.130000,94.563409
2698.058000,94.440427
2699.987000,94.314410
2701.915000,94.162348
2703.844000,93.971615
2705.772000,93.731831
2707.701000,93.442223
2709.630000,93.105707
2711.558000,92.726659
2713.487000,92.296353
2715.415000,91.770243
2717.344000,91.081711
2719.272000,90.191448
2721.201000,89.078232
2723.130000,87.637082
2725.058000,85.606541
2726.987000,82.821328
2728.915000,79.700897
2730.844000,77.557107
2732.772000,77.816483
2734.701000,80.453187
2736.629000,83.964595
2738.558000,86.982493
2740.487000,89.085961
2742.415000,90.429334
2744.344000,91.269672
2746.272000,91.788719
2748.201000,92.091749
2750.129000,92.254460
2752.058000,92.300051
2753.987000,92.235341
2755.915000,92.077420
2757.844000,91.860740
2759.772000,91.677403
2761.701000,91.633803
2763.629000,91.725450
2765.558000,91.878323
2767.487000,92.033324
2769.415000,92.161094
2771.344000,92.227981
2773.272000,92.216552
2775.201000,92.145273
2777.129000,92.029525
2779.058000,91.879167
2780.986000,91.711537
2782.915000,91.533058
2784.844000,91.315729
2786.772000,91.041099
2788.701000,90.747674
2790.629000,90.475941
2792.558000,90.232722
2794.486000,89.979039
2796.415000,89.673977
2798.344000,89.305174
2800.272000,88.877211
2802.201000,88.405568
2804.129000,87.925033
2806.058000,87.455956
2807.986000,86.979318
2809.915000,86.453026
2811.844000,85.857463
2813.772000,85.188313
2815.700000,84.464266
2817.629000,83.687915
2819.558000,82.862940
2821.486000,82.003831
2823.415000,81.141373
2825.343000,80.282783
2827.272000,79.354252
2829.200000,78.256190
2831.129000,76.928187
2833.058000,75.371247
2834.986000,73.645226
2836.915000,71.746232
2838.843000,69.591645
2840.772000,67.115959
2842.700000,64.259982
2844.629000,60.995149
2846.558000,57.366757
2848.486000,53.509957
2850.415000,49.578616
2852.343000,45.664026
2854.272000,41.912272
2856.200000,38.629466
2858.129000,36.070744
2860.057000,34.272304
2861.986000,33.136230
2863.915000,32.571586
2865.843000,32.498439
2867.772000,32.777430
2869.700000,33.248496
2871.629000,33.787161
2873.557000,34.355874
2875.486000,34.985066
2877.415000,35.666730
2879.343000,36.321954
2881.272000,36.862926
2883.200000,37.261497
2885.129000,37.523635
2887.057000,37.632875
2888.986000,37.588267
2890.915000,37.454319
2892.843000,37.297730
2894.771000,37.065222
2896.700000,36.592367
2898.629000,35.717084
2900.557000,34.373013
2902.486000,32.614160
2904.414000,30.515149
2906.343000,28.106185
2908.271000,25.384289
2910.200000,22.388366
2912.129000,19.257393
2914.057000,16.252123
2915.986000,13.681109
2917.914000,11.795528
2919.843000,10.739110
2921.771000,10.580778
2923.700000,11.329598
2925.629000,12.865548
2927.557000,14.845154
2929.486000,16.779488
2931.414000,18.218994
2933.343000,18.955393
2935.271000,19.043927
2937.200000,18.738201
2939.128000,18.400978
2941.057000,18.367870
2942.986000,18.787561
2944.914000,19.598124
2946.843000,20.643660
2948.771000,21.772480
2950.700000,22.884230
2952.628000,23.957395
2954.557000,24.995038
2956.486000,25.900581
2958.414000,26.479629
2960.343000,26.599030
2962.271000,26.269923
2964.200000,25.602820
2966.128000,24.770159
2968.057000,24.021521
2969.986000,23.641346
2971.914000,23.873236
2973.843000,24.807763
2975.771000,26.353797
2977.700000,28.273834
2979.628000,30.273247
2981.557000,32.100803
2983.485000,33.593295
2985.414000,34.632178
2987.343000,35.148856
2989.271000,35.202378
2991.200000,35.013135
2993.128000,34.742687
2995.057000,34.278412
2996.985000,33.503340
2998.914000,32.571466
3000.843000,31.660932
3002.771000,30.616948
3004.700000,29.064811
3006.628000,26.872032
3008.557000,24.302794
3010.485000,21.660102
3012.414000,19.111224
3014.343000,16.989183
3016.271000,15.801652
3018.199000,15.832887
3020.128000,16.888641
3022.057000,18.470145
3023.985000,20.113868
3025.914000,21.660366
3027.842000,23.157432
3029.771000,24.592326
3031.699000,25.901123
3033.628000,27.101792
3035.557000,28.245587
3037.485000,29.273975
3039.414000,30.067893
3041.342000,30.557886
3043.271000,30.760642
3045.199000,30.809262
3047.128000,30.980812
3049.057000,31.700609
3050.985000,33.251512
3052.914000,35.535023
3054.842000,38.163904
3056.771000,40.764967
3058.699000,43.112688
3060.628000,45.105843
3062.556000,46.782163
3064.485000,48.365090
3066.414000,50.178503
3068.342000,52.467334
3070.271000,55.134076
3072.199000,57.717286
3074.128000,59.743065
3076.056000,61.106372
3077.985000,62.158382
3079.914000,63.514795
3081.842000,65.591143
3083.771000,68.123209
3085.699000,70.404092
3087.628000,72.006152
3089.556000,72.957022
3091.485000,73.474375
3093.414000,73.811580
3095.342000,74.233716
3097.271000,74.835179
3099.199000,75.438266
3101.128000,75.779494
3103.056000,75.764105
3104.985000,75.569822
3106.913000,75.675727
3108.842000,76.730442
3110.771000,78.889699
3112.699000,81.468095
3114.628000,83.733233
3116.556000,85.465870
3118.485000,86.721719
3120.413000,87.627919
3122.342000,88.304698
3124.271000,88.795809
3126.199000,89.112472
3128.128000,89.254070
3130.056000,89.213147
3131.985000,89.036533
3133.913000,88.879508
3135.842000,89.036836
3137.771000,89.618766
3139.699000,90.345967
3141.627000,90.938478
3143.556000,91.346925
3145.485000,91.632898
3147.413000,91.839697
3149.342000,91.989166
3151.270000,92.096020
3153.199000,92.192489
3155.127000,92.287379
3157.056000,92.377939
3158.985000,92.480313
3160.913000,92.616160
3162.842000,92.790772
3164.770000,92.987243
3166.699000,93.177325
3168.627000,93.338844
3170.556000,93.466067
3172.485000,93.563244
3174.413000,93.639020
3176.342000,93.695232
3178.270000,93.747335
3180.199000,93.816246
3182.127000,93.911831
3184.056000,94.017329
3185.984000,94.110476
3187.913000,94.180129
3189.842000,94.228919
3191.770000,94.268077
3193.699000,94.297116
3195.627000,94.325588
3197.556000,94.354103
3199.484000,94.380325
3201.413000,94.406170
3203.342000,94.437476
3205.270000,94.480193
3207.199000,94.531790
3209.127000,94.578125
3211.056000,94.620272
3212.984000,94.679671
3214.913000,94.743436
3216.842000,94.793598
3218.770000,94.827181
3220.698000,94.856125
3222.627000,94.884333
3224.556000,94.910089
3226.484000,94.927965
3228.413000,94.938405
3230.341000,94.938263
3232.270000,94.921836
3234.198000,94.915992
3236.127000,94.915585
3238.056000,94.907427
3239.984000,94.901236
3241.913000,94.891521
3243.841000,94.886625
3245.770000,94.878906
3247.698000,94.877864
3249.627000,94.886326
3251.556000,94.897965
3253.484000,94.910500
3255.413000,94.909136
3257.341000,94.916206
3259.270000,94.941190
3261.198000,94.953726
3263.127000,94.971011
3265.055000,94.995497
3266.984000,95.013199
3268.913000,95.019754
3270.841000,95.038073
3272.770000,95.074244
3274.698000,95.099004
3276.627000,95.125326
3278.555000,95.155816
3280.484000,95.169693
3282.413000,95.188008
3284.341000,95.202160
3286.270000,95.213991
3288.198000,95.227256
3290.127000,95.232339
3292.055000,95.241588
3293.984000,95.258386
3295.913000,95.279002
3297.841000,95.293658
3299.770000,95.294784
3301.698000,95.292752
3303.627000,95.284028
3305.555000,95.275861
3307.484000,95.290369
3309.412000,95.310893
3311.341000,95.324955
3313.270000,95.334429
3315.198000,95.337494
3317.127000,95.339267
3319.055000,95.342038
3320.984000,95.347217
3322.912000,95.359382
3324.841000,95.366020
3326.770000,95.366170
3328.698000,95.370032
3330.627000,95.379482
3332.555000,95.389409
3334.484000,95.392173
3336.412000,95.385500
3338.341000,95.385625
3340.270000,95.389557
3342.198000,95.386565
3344.126000,95.383954
3346.055000,95.386954
3347.984000,95.384123
3349.912000,95.378461
3351.841000,95.382970
3353.769000,95.389789
3355.698000,95.387145
3357.626000,95.380760
3359.555000,95.369692
3361.484000,95.352705
3363.412000,95.337860
3365.341000,95.313608
3367.269000,95.282655
3369.198000,95.263828
3371.126000,95.263398
3373.055000,95.269556
3374.984000,95.263085
3376.912000,95.254309
3378.841000,95.264449
3380.769000,95.296241
3382.698000,95.331316
3384.626000,95.363862
3386.555000,95.399153
3388.483000,95.430744
3390.412000,95.452457
3392.341000,95.483669
3394.269000,95.521990
3396.198000,95.544772
3398.126000,95.544194
3400.055000,95.537251
3401.983000,95.549601
3403.912000,95.561624
3405.841000,95.569567
3407.769000,95.566634
3409.698000,95.559621
3411.626000,95.552138
3413.555000,95.546603
3415.483000,95.536505
3417.412000,95.517969
3419.341000,95.507978
3421.269000,95.500780
3423.198000,95.477496
3425.126000,95.448621
3427.055000,95.426989
3428.983000,95.405710
3430.912000,95.390404
3432.840000,95.376052
3434.769000,95.371361
3436.698000,95.384604
3438.626000,95.408046
3440.555000,95.424866
3442.483000,95.436543
3444.412000,95.439697
3446.340000,95.445597
3448.269000,95.437525
3450.198000,95.424550
3452.126000,95.419589
3454.055000,95.413595
3455.983000,95.413226
3457.912000,95.423689
3459.840000,95.449758
3461.769000,95.481673
3463.698000,95.517881
3465.626000,95.553234
3467.554000,95.584757
3469.483000,95.618010
3471.412000,95.646022
3473.340000,95.668929
3475.269000,95.688465
3477.197000,95.703275
3479.126000,95.732989
3481.054000,95.781479
3482.983000,95.809790
3484.912000,95.828544
3486.840000,95.865155
3488.769000,95.890872
3490.697000,95.903165
3492.626000,95.919136
3494.554000,95.937691
3496.483000,95.954730
3498.412000,95.966457
3500.340000,95.984052
3502.269000,96.006056
3504.197000,96.026420
3506.126000,96.045172
3508.054000,96.086973
3509.983000,96.125409
3511.911000,96.140583
3513.840000,96.152907
3515.769000,96.174817
3517.697000,96.189084
3519.626000,96.199120
3521.554000,96.215735
3523.483000,96.230034
3525.411000,96.235915
3527.340000,96.233451
3529.269000,96.207502
3531.197000,96.171254
3533.126000,96.135985
3535.054000,96.092449
3536.983000,96.045418
3538.911000,96.001836
3540.840000,95.953655
3542.769000,95.917597
3544.697000,95.900219
3546.625000,95.881008
3548.554000,95.854214
3550.483000,95.874606
3552.411000,95.925765
3554.340000,95.968399
3556.268000,96.022556
3558.197000,96.078499
3560.125000,96.128054
3562.054000,96.173048
3563.983000,96.221987
3565.911000,96.284924
3567.840000,96.283272
3569.768000,96.206937
3571.697000,96.167538
3573.625000,96.161387
3575.554000,96.175632
3577.483000,96.209707
3579.411000,96.212369
3581.340000,96.167727
3583.268000,96.131582
3585.197000,96.200538
3587.125000,96.306307
3589.054000,96.300763
3590.982000,96.252099
3592.911000,96.257478
3594.840000,96.253737
3596.768000,96.240327
3598.697000,96.267424
3600.625000,96.322876
3602.554000,96.368039
3604.482000,96.430645
3606.411000,96.537805
3608.340000,96.644668
3610.268000,96.657865
3612.197000,96.674978
3614.125000,96.671610
3616.054000,96.701520
3617.982000,96.791540
3619.911000,96.794272
3621.840000,96.718506
3623.768000,96.708601
3625.697000,96.774759
3627.625000,96.948153
3629.554000,96.928261
3631.482000,96.735388
3633.411000,96.680202
3635.339000,96.646620
3637.268000,96.612693
3639.197000,96.580745
3641.125000,96.551643
3643.054000,96.540641
3644.982000,96.610836
3646.911000,96.768632
3648.839000,96.857015
3650.768000,96.728468
3652.697000,96.537532
3654.625000,96.512548
3656.554000,96.439580
3658.482000,96.229208
3660.411000,96.088718
3662.339000,96.013427
3664.268000,95.992354
3666.197000,96.073188
3668.125000,96.299635
3670.053000,96.490870
3671.982000,96.477793
3673.911000,96.623316
3675.839000,96.695528
3677.768000,96.502917
3679.696000,96.421688
3681.625000,96.379753
3683.553000,96.368367
3685.482000,96.428289
3687.411000,96.617443
3689.339000,96.658831
3691.268000,96.585984
3693.196000,96.538410
3695.125000,96.555576
3697.053000,96.601673
3698.982000,96.670791
3700.911000,96.759532
3702.839000,96.758877
3704.768000,96.728292
3706.696000,96.753860
3708.625000,96.824216
3710.553000,96.894041
3712.482000,96.835050
3714.410000,96.676120
3716.339000,96.633527
3718.268000,96.648776
3720.196000,96.669106
3722.125000,96.668907
3724.053000,96.633458
3725.982000,96.580387
3727.910000,96.459432
3729.839000,96.395349
3731.768000,96.402143
3733.696000,96.344998
3735.625000,96.315335
3737.553000,96.158744
3739.482000,96.021362
3741.410000,96.044080
3743.339000,96.267490
3745.268000,96.125681
3747.196000,95.900133
3749.125000,95.982399
3751.053000,95.962499
3752.982000,95.809775
3754.910000,95.713340
3756.839000,95.802310
3758.767000,95.877789
3760.696000,95.898477
3762.625000,95.894017
3764.553000,95.967148
3766.482000,95.990470
3768.410000,96.045000
3770.339000,96.040707
3772.267000,95.974129
3774.196000,95.961494
3776.125000,96.006359
3778.053000,96.096230
3779.982000,96.150321
3781.910000,96.147651
3783.839000,96.180303
3785.767000,96.189354
3787.696000,96.192034
3789.624000,96.191556
3791.553000,96.194978
3793.481000,96.205467
3795.410000,96.267721
3797.339000,96.252308
3799.267000,96.311778
3801.196000,96.387255
3803.124000,96.205958
3805.053000,96.158870
3806.981000,96.167344
3808.910000,95.985124
3810.839000,95.865899
3812.767000,95.844216
3814.696000,95.949735
3816.624000,95.876835
3818.553000,95.735804
3820.481000,95.751532
3822.410000,95.592907
3824.339000,95.432221
3826.267000,95.403373
3828.196000,95.385517
3830.124000,95.441965
3832.053000,95.488020
3833.981000,95.514923
3835.910000,95.615286
3837.838000,95.663010
3839.767000,95.531762
3841.696000,95.434053
3843.624000,95.355171
3845.553000,95.246635
3847.481000,95.177396
3849.410000,95.236295
3851.338000,95.499588
3853.267000,95.728563
3855.196000,95.485116
3857.124000,95.241492
3859.053000,95.183901
3860.981000,95.187636
3862.910000,95.191154
3864.838000,95.146205
3866.767000,95.032893
3868.695000,95.037410
3870.624000,94.916586
3872.552000,94.739790
3874.481000,94.652845
3876.410000,94.554865
3878.338000,94.554724
3880.267000,94.543359
3882.195000,94.422268
3884.124000,94.355548
3886.052000,94.213533
3887.981000,93.972948
3889.910000,93.904192
3891.838000,93.848155
3893.767000,93.787906
3895.695000,93.855038
3897.624000,94.017526
3899.552000,94.167218
3901.481000,94.255745
3903.410000,94.320162
3905.338000,94.331995
3907.267000,94.357803
3909.195000,94.425986
3911.124000,94.495690
3913.052000,94.560369
3914.981000,94.647790
3916.909000,94.718251
3918.838000,94.725531
3920.767000,94.719339
3922.695000,94.709992
3924.624000,94.689238
3926.552000,94.633857
3928.481000,94.604516
3930.409000,94.606394
3932.338000,94.599199
3934.267000,94.568850
3936.195000,94.553315
3938.124000,94.562029
3940.052000,94.580839
3941.981000,94.602299
3943.909000,94.583225
3945.838000,94.562575
3947.766000,94.556128
3949.695000,94.530849
3951.624000,94.497172
3953.552000,94.484650
3955.481000,94.498190
3957.409000,94.518430
3959.338000,94.556180
3961.266000,94.603050
3963.195000,94.661112
3965.124000,94.730651
3967.052000,94.804305
3968.981000,94.862521
3970.909000,94.915504
3972.838000,94.971643
3974.766000,95.014908
3976.695000,95.062180
3978.624000,95.103349
3980.552000,95.131059
3982.480000,95.148004
3984.409000,95.166849
3986.338000,95.189525
3988.266000,95.195474
3990.195000,95.190102
3992.123000,95.175290
3994.052000,95.152306
3995.980000,95.117301
3997.909000,95.071192
3999.838000,95.005045
4001.766000,100.000000