# HCl spectrum
# xmin= 2650 cm^-1
# xmax= 3100 cm^-1

Wavenumber, Absorbance
2650, 0.0244
2650.12, 0.0251
2650.25, 0.0252
2650.38, 0.0247
2650.5, 0.0239
2650.62, 0.0232
2650.75, 0.023
2650.88, 0.0233
2651, 0.0238
2651.12, 0.0242
2651.25, 0.0243
2651.38, 0.0239
2651.5, 0.0233
2651.62, 0.0236
2651.75, 0.0252
2651.88, 0.0276
2652, 0.0288
2652.12, 0.0278
2652.25, 0.0252
2652.38, 0.0229
2652.5, 0.0221
2652.62, 0.0225
2652.75, 0.023
2652.88, 0.0231
2653, 0.023
2653.12, 0.023
2653.25, 0.0235
2653.38, 0.024
2653.5, 0.024
2653.62, 0.0236
2653.75, 0.0231
2653.88, 0.0232
2654, 0.0239
2654.12, 0.0245
2654.25, 0.0245
2654.38, 0.0236
2654.5, 0.0228
2654.62, 0.0227
2654.75, 0.0236
2654.88, 0.0244
2655, 0.0242
2655.12, 0.0232
2655.25, 0.0225
2655.38, 0.0227
2655.5, 0.0233
2655.62, 0.0236
2655.75, 0.0235
2655.88, 0.0234
2656, 0.0236
2656.12, 0.0237
2656.25, 0.0236
2656.38, 0.0232
2656.5, 0.0231
2656.62, 0.0234
2656.75, 0.0242
2656.88, 0.0248
2657, 0.0247
2657.12, 0.0236
2657.25, 0.0223
2657.38, 0.0218
2657.5, 0.0223
2657.62, 0.0232
2657.75, 0.0234
2657.88, 0.0231
2658, 0.0227
2658.12, 0.0227
2658.25, 0.023
2658.38, 0.0231
2658.5, 0.0228
2658.62, 0.0225
2658.75, 0.0224
2658.88, 0.0223
2659, 0.0222
2659.12, 0.0219
2659.25, 0.0219
2659.38, 0.0222
2659.5, 0.0229
2659.62, 0.0235
2659.75, 0.0233
2659.88, 0.0223
2660, 0.0212
2660.12, 0.0211
2660.25, 0.0223
2660.38, 0.0235
2660.5, 0.0237
2660.62, 0.023
2660.75, 0.0226
2660.88, 0.0232
2661, 0.0241
2661.12, 0.0243
2661.25, 0.0238
2661.38, 0.0232
2661.5, 0.0232
2661.62, 0.0235
2661.75, 0.0234
2661.88, 0.0229
2662, 0.0223
2662.12, 0.0225
2662.25, 0.0236
2662.38, 0.0247
2662.5, 0.0245
2662.62, 0.0234
2662.75, 0.0224
2662.88, 0.0227
2663, 0.0236
2663.12, 0.0241
2663.25, 0.0239
2663.38, 0.0236
2663.5, 0.0236
2663.62, 0.0237
2663.75, 0.0235
2663.88, 0.0228
2664, 0.022
2664.12, 0.0216
2664.25, 0.0221
2664.38, 0.0229
2664.5, 0.0233
2664.62, 0.0231
2664.75, 0.0227
2664.88, 0.023
2665, 0.0237
2665.12, 0.0241
2665.25, 0.024
2665.38, 0.0234
2665.5, 0.0228
2665.62, 0.0223
2665.75, 0.0219
2665.88, 0.0216
2666, 0.0214
2666.12, 0.0216
2666.25, 0.0225
2666.38, 0.0238
2666.5, 0.0248
2666.62, 0.0247
2666.75, 0.0239
2666.88, 0.0231
2667, 0.0229
2667.12, 0.0229
2667.25, 0.0226
2667.38, 0.0222
2667.5, 0.0222
2667.62, 0.0228
2667.75, 0.0236
2667.88, 0.0238
2668, 0.0231
2668.12, 0.022
2668.25, 0.0216
2668.38, 0.0225
2668.5, 0.0239
2668.62, 0.0246
2668.75, 0.0241
2668.88, 0.0233
2669, 0.0233
2669.12, 0.024
2669.25, 0.0244
2669.38, 0.024
2669.5, 0.0233
2669.62, 0.0232
2669.75, 0.0237
2669.88, 0.0243
2670, 0.0244
2670.12, 0.024
2670.25, 0.0238
2670.38, 0.0241
2670.5, 0.0247
2670.62, 0.0248
2670.75, 0.024
2670.88, 0.0229
2671, 0.0223
2671.12, 0.0226
2671.25, 0.0231
2671.38, 0.0233
2671.5, 0.0229
2671.62, 0.0226
2671.75, 0.0229
2671.88, 0.0238
2672, 0.0243
2672.12, 0.0239
2672.25, 0.0229
2672.38, 0.0224
2672.5, 0.0227
2672.62, 0.0233
2672.75, 0.023
2672.88, 0.0222
2673, 0.0217
2673.12, 0.0221
2673.25, 0.023
2673.38, 0.0236
2673.5, 0.0233
2673.62, 0.0227
2673.75, 0.0225
2673.88, 0.0228
2674, 0.023
2674.12, 0.0227
2674.25, 0.0222
2674.38, 0.0225
2674.5, 0.0237
2674.62, 0.0252
2674.75, 0.0257
2674.88, 0.0251
2675, 0.0242
2675.12, 0.0241
2675.25, 0.0244
2675.38, 0.0245
2675.5, 0.024
2675.62, 0.0235
2675.75, 0.0241
2675.88, 0.026
2676, 0.0275
2676.12, 0.0272
2676.25, 0.0251
2676.38, 0.0231
2676.5, 0.0227
2676.62, 0.0235
2676.75, 0.024
2676.88, 0.0232
2677, 0.022
2677.12, 0.0216
2677.25, 0.0225
2677.38, 0.0245
2677.5, 0.0273
2677.62, 0.0301
2677.75, 0.0315
2677.88, 0.0307
2678, 0.0283
2678.12, 0.0256
2678.25, 0.0238
2678.38, 0.0228
2678.5, 0.0224
2678.62, 0.0225
2678.75, 0.023
2678.88, 0.0232
2679, 0.0229
2679.12, 0.0228
2679.25, 0.0234
2679.38, 0.0246
2679.5, 0.0252
2679.62, 0.0248
2679.75, 0.0238
2679.88, 0.0232
2680, 0.0233
2680.12, 0.0234
2680.25, 0.0228
2680.38, 0.0218
2680.5, 0.0214
2680.62, 0.0223
2680.75, 0.0236
2680.88, 0.024
2681, 0.0232
2681.12, 0.0222
2681.25, 0.0222
2681.38, 0.0232
2681.5, 0.0241
2681.62, 0.0238
2681.75, 0.0229
2681.88, 0.0223
2682, 0.0228
2682.12, 0.0235
2682.25, 0.0237
2682.38, 0.0232
2682.5, 0.0226
2682.62, 0.0227
2682.75, 0.0235
2682.88, 0.0242
2683, 0.0243
2683.12, 0.024
2683.25, 0.0236
2683.38, 0.0233
2683.5, 0.0232
2683.62, 0.0231
2683.75, 0.023
2683.88, 0.0229
2684, 0.0231
2684.12, 0.0232
2684.25, 0.023
2684.38, 0.0221
2684.5, 0.0213
2684.62, 0.0216
2684.75, 0.0228
2684.88, 0.024
2685, 0.0243
2685.12, 0.0239
2685.25, 0.0237
2685.38, 0.0241
2685.5, 0.0246
2685.62, 0.0245
2685.75, 0.0238
2685.88, 0.0229
2686, 0.0225
2686.12, 0.023
2686.25, 0.0238
2686.38, 0.0241
2686.5, 0.0236
2686.62, 0.023
2686.75, 0.023
2686.88, 0.0235
2687, 0.0236
2687.12, 0.0231
2687.25, 0.0225
2687.38, 0.0225
2687.5, 0.023
2687.62, 0.0236
2687.75, 0.0235
2687.88, 0.0231
2688, 0.0229
2688.12, 0.0236
2688.25, 0.0246
2688.38, 0.0248
2688.5, 0.0238
2688.62, 0.0224
2688.75, 0.0219
2688.88, 0.0225
2689, 0.0234
2689.12, 0.0238
2689.25, 0.0236
2689.38, 0.023
2689.5, 0.0226
2689.62, 0.0227
2689.75, 0.0231
2689.88, 0.023
2690, 0.0224
2690.12, 0.022
2690.25, 0.0224
2690.38, 0.0233
2690.5, 0.0237
2690.62, 0.0233
2690.75, 0.023
2690.88, 0.0236
2691, 0.0244
2691.12, 0.0245
2691.25, 0.0238
2691.38, 0.0231
2691.5, 0.0232
2691.62, 0.0239
2691.75, 0.0246
2691.88, 0.0246
2692, 0.0242
2692.12, 0.0236
2692.25, 0.0235
2692.38, 0.0236
2692.5, 0.0237
2692.62, 0.0234
2692.75, 0.0232
2692.88, 0.0233
2693, 0.0236
2693.12, 0.0237
2693.25, 0.0234
2693.38, 0.0231
2693.5, 0.0231
2693.62, 0.0236
2693.75, 0.0241
2693.88, 0.0242
2694, 0.0237
2694.12, 0.0231
2694.25, 0.023
2694.38, 0.0235
2694.5, 0.024
2694.62, 0.024
2694.75, 0.0237
2694.88, 0.0238
2695, 0.0244
2695.12, 0.0247
2695.25, 0.0244
2695.38, 0.0236
2695.5, 0.023
2695.62, 0.023
2695.75, 0.0231
2695.88, 0.0229
2696, 0.0223
2696.12, 0.022
2696.25, 0.0223
2696.38, 0.0229
2696.5, 0.0231
2696.62, 0.0226
2696.75, 0.0222
2696.88, 0.0224
2697, 0.0229
2697.12, 0.0234
2697.25, 0.0232
2697.38, 0.0227
2697.5, 0.0223
2697.62, 0.0225
2697.75, 0.0232
2697.88, 0.0238
2698, 0.0238
2698.12, 0.0234
2698.25, 0.0231
2698.38, 0.0233
2698.5, 0.0234
2698.62, 0.0231
2698.75, 0.0224
2698.88, 0.022
2699, 0.0223
2699.12, 0.0232
2699.25, 0.0241
2699.38, 0.0244
2699.5, 0.024
2699.62, 0.0235
2699.75, 0.0234
2699.88, 0.0238
2700, 0.0241
2700.12, 0.0239
2700.25, 0.0236
2700.38, 0.0234
2700.5, 0.0235
2700.62, 0.0237
2700.75, 0.0241
2700.88, 0.0253
2701, 0.0274
2701.12, 0.0295
2701.25, 0.03
2701.38, 0.0281
2701.5, 0.0251
2701.62, 0.0232
2701.75, 0.0232
2701.88, 0.0241
2702, 0.0243
2702.12, 0.0234
2702.25, 0.0227
2702.38, 0.0228
2702.5, 0.0238
2702.62, 0.0263
2702.75, 0.0314
2702.88, 0.0382
2703, 0.043
2703.12, 0.0422
2703.25, 0.0363
2703.38, 0.0295
2703.5, 0.0252
2703.62, 0.0235
2703.75, 0.0231
2703.88, 0.023
2704, 0.0233
2704.12, 0.0236
2704.25, 0.0236
2704.38, 0.0237
2704.5, 0.024
2704.62, 0.0245
2704.75, 0.0246
2704.88, 0.024
2705, 0.0233
2705.12, 0.023
2705.25, 0.0232
2705.38, 0.0234
2705.5, 0.0236
2705.62, 0.0236
2705.75, 0.0236
2705.88, 0.0235
2706, 0.0233
2706.12, 0.0231
2706.25, 0.0229
2706.38, 0.0229
2706.5, 0.0229
2706.62, 0.0232
2706.75, 0.0236
2706.88, 0.0239
2707, 0.024
2707.12, 0.0239
2707.25, 0.0238
2707.38, 0.0236
2707.5, 0.0233
2707.62, 0.0229
2707.75, 0.0229
2707.88, 0.0233
2708, 0.0236
2708.12, 0.0236
2708.25, 0.0235
2708.38, 0.0234
2708.5, 0.0233
2708.62, 0.0234
2708.75, 0.0238
2708.88, 0.0241
2709, 0.0238
2709.12, 0.0233
2709.25, 0.023
2709.38, 0.0232
2709.5, 0.0234
2709.62, 0.0231
2709.75, 0.0229
2709.88, 0.0232
2710, 0.0239
2710.12, 0.0245
2710.25, 0.0245
2710.38, 0.0242
2710.5, 0.024
2710.62, 0.0238
2710.75, 0.0238
2710.88, 0.0238
2711, 0.0236
2711.12, 0.023
2711.25, 0.0223
2711.38, 0.0222
2711.5, 0.0229
2711.62, 0.0237
2711.75, 0.024
2711.88, 0.0236
2712, 0.0231
2712.12, 0.023
2712.25, 0.0231
2712.38, 0.0232
2712.5, 0.0232
2712.62, 0.0232
2712.75, 0.0235
2712.88, 0.0237
2713, 0.0239
2713.12, 0.0237
2713.25, 0.0236
2713.38, 0.0239
2713.5, 0.0243
2713.62, 0.0245
2713.75, 0.0244
2713.88, 0.0242
2714, 0.0242
2714.12, 0.0242
2714.25, 0.0242
2714.38, 0.0241
2714.5, 0.0238
2714.62, 0.0235
2714.75, 0.0235
2714.88, 0.0238
2715, 0.0241
2715.12, 0.0239
2715.25, 0.0231
2715.38, 0.0224
2715.5, 0.0224
2715.62, 0.023
2715.75, 0.0235
2715.88, 0.0234
2716, 0.0231
2716.12, 0.023
2716.25, 0.0234
2716.38, 0.0238
2716.5, 0.0236
2716.62, 0.023
2716.75, 0.0227
2716.88, 0.0234
2717, 0.0245
2717.12, 0.0249
2717.25, 0.0243
2717.38, 0.0234
2717.5, 0.0231
2717.62, 0.0233
2717.75, 0.0237
2717.88, 0.0238
2718, 0.0239
2718.12, 0.024
2718.25, 0.024
2718.38, 0.024
2718.5, 0.0237
2718.62, 0.023
2718.75, 0.0221
2718.88, 0.0218
2719, 0.0223
2719.12, 0.0231
2719.25, 0.0233
2719.38, 0.0229
2719.5, 0.0228
2719.62, 0.0234
2719.75, 0.0241
2719.88, 0.0242
2720, 0.0234
2720.12, 0.0223
2720.25, 0.0219
2720.38, 0.0223
2720.5, 0.0231
2720.62, 0.0233
2720.75, 0.0227
2720.88, 0.0222
2721, 0.0224
2721.12, 0.0231
2721.25, 0.0234
2721.38, 0.0232
2721.5, 0.0229
2721.62, 0.0231
2721.75, 0.0233
2721.88, 0.023
2722, 0.0223
2722.12, 0.0219
2722.25, 0.0224
2722.38, 0.0235
2722.5, 0.0244
2722.62, 0.0244
2722.75, 0.0235
2722.88, 0.0229
2723, 0.023
2723.12, 0.0236
2723.25, 0.0238
2723.38, 0.0231
2723.5, 0.0224
2723.62, 0.0225
2723.75, 0.0232
2723.88, 0.0238
2724, 0.0238
2724.12, 0.0234
2724.25, 0.023
2724.38, 0.023
2724.5, 0.0235
2724.62, 0.0239
2724.75, 0.0236
2724.88, 0.0228
2725, 0.0226
2725.12, 0.0232
2725.25, 0.0239
2725.38, 0.0239
2725.5, 0.0241
2725.62, 0.0262
2725.75, 0.0304
2725.88, 0.0345
2726, 0.0353
2726.12, 0.0322
2726.25, 0.0273
2726.38, 0.0239
2726.5, 0.0232
2726.62, 0.0238
2726.75, 0.0239
2726.88, 0.0233
2727, 0.0233
2727.12, 0.0242
2727.25, 0.0256
2727.38, 0.0287
2727.5, 0.036
2727.62, 0.0479
2727.75, 0.0585
2727.88, 0.0599
2728, 0.0505
2728.12, 0.0374
2728.25, 0.0281
2728.38, 0.0244
2728.5, 0.0238
2728.62, 0.024
2728.75, 0.0241
2728.88, 0.0238
2729, 0.0231
2729.12, 0.0227
2729.25, 0.0232
2729.38, 0.0241
2729.5, 0.024
2729.62, 0.0231
2729.75, 0.0224
2729.88, 0.0226
2730, 0.0229
2730.12, 0.0225
2730.25, 0.0219
2730.38, 0.0219
2730.5, 0.0225
2730.62, 0.0233
2730.75, 0.0238
2730.88, 0.0238
2731, 0.0235
2731.12, 0.0235
2731.25, 0.024
2731.38, 0.0246
2731.5, 0.0244
2731.62, 0.0235
2731.75, 0.0227
2731.88, 0.0227
2732, 0.0232
2732.12, 0.0232
2732.25, 0.0228
2732.38, 0.0225
2732.5, 0.0229
2732.62, 0.0235
2732.75, 0.0238
2732.88, 0.0232
2733, 0.0224
2733.12, 0.022
2733.25, 0.0223
2733.38, 0.0228
2733.5, 0.0228
2733.62, 0.0223
2733.75, 0.0219
2733.88, 0.0224
2734, 0.0234
2734.12, 0.0242
2734.25, 0.0242
2734.38, 0.0237
2734.5, 0.0235
2734.62, 0.0237
2734.75, 0.0238
2734.88, 0.0234
2735, 0.0225
2735.12, 0.0219
2735.25, 0.0222
2735.38, 0.023
2735.5, 0.0231
2735.62, 0.0224
2735.75, 0.0221
2735.88, 0.0228
2736, 0.024
2736.12, 0.0243
2736.25, 0.0235
2736.38, 0.0223
2736.5, 0.0217
2736.62, 0.0222
2736.75, 0.0232
2736.88, 0.0239
2737, 0.0238
2737.12, 0.0232
2737.25, 0.023
2737.38, 0.0234
2737.5, 0.0239
2737.62, 0.0236
2737.75, 0.023
2737.88, 0.0227
2738, 0.023
2738.12, 0.0235
2738.25, 0.0232
2738.38, 0.0222
2738.5, 0.0212
2738.62, 0.0211
2738.75, 0.022
2738.88, 0.0228
2739, 0.0225
2739.12, 0.0218
2739.25, 0.0217
2739.38, 0.0225
2739.5, 0.0233
2739.62, 0.0232
2739.75, 0.0226
2739.88, 0.0225
2740, 0.023
2740.12, 0.0235
2740.25, 0.0235
2740.38, 0.0231
2740.5, 0.0224
2740.62, 0.0219
2740.75, 0.022
2740.88, 0.0227
2741, 0.0232
2741.12, 0.023
2741.25, 0.0226
2741.38, 0.0229
2741.5, 0.0237
2741.62, 0.0241
2741.75, 0.0235
2741.88, 0.0226
2742, 0.0226
2742.12, 0.0233
2742.25, 0.024
2742.38, 0.024
2742.5, 0.0237
2742.62, 0.0237
2742.75, 0.0243
2742.88, 0.0249
2743, 0.0247
2743.12, 0.0237
2743.25, 0.0228
2743.38, 0.0228
2743.5, 0.0235
2743.62, 0.0242
2743.75, 0.0243
2743.88, 0.0239
2744, 0.0235
2744.12, 0.0237
2744.25, 0.0243
2744.38, 0.0245
2744.5, 0.0238
2744.62, 0.0228
2744.75, 0.0225
2744.88, 0.023
2745, 0.0235
2745.12, 0.0232
2745.25, 0.0227
2745.38, 0.023
2745.5, 0.0237
2745.62, 0.0241
2745.75, 0.0239
2745.88, 0.0233
2746, 0.0229
2746.12, 0.0231
2746.25, 0.0239
2746.38, 0.0246
2746.5, 0.0246
2746.62, 0.0236
2746.75, 0.0228
2746.88, 0.0231
2747, 0.0238
2747.12, 0.0239
2747.25, 0.0234
2747.38, 0.0229
2747.5, 0.023
2747.62, 0.0232
2747.75, 0.0235
2747.88, 0.0237
2748, 0.0235
2748.12, 0.023
2748.25, 0.0229
2748.38, 0.0232
2748.5, 0.0233
2748.62, 0.0225
2748.75, 0.0218
2748.88, 0.0224
2749, 0.0239
2749.12, 0.0246
2749.25, 0.0238
2749.38, 0.0227
2749.5, 0.0227
2749.62, 0.024
2749.75, 0.027
2749.88, 0.0326
2750, 0.0397
2750.12, 0.0444
2750.25, 0.0434
2750.38, 0.0375
2750.5, 0.0305
2750.62, 0.026
2750.75, 0.0242
2750.88, 0.0237
2751, 0.0235
2751.12, 0.0234
2751.25, 0.0237
2751.38, 0.0242
2751.5, 0.0255
2751.62, 0.0308
2751.75, 0.0441
2751.88, 0.0641
2752, 0.0807
2752.12, 0.0818
2752.25, 0.0666
2752.38, 0.0466
2752.5, 0.0328
2752.62, 0.0268
2752.75, 0.0246
2752.88, 0.0235
2753, 0.0233
2753.12, 0.024
2753.25, 0.0243
2753.38, 0.0234
2753.5, 0.0226
2753.62, 0.0226
2753.75, 0.0231
2753.88, 0.0236
2754, 0.0238
2754.12, 0.0237
2754.25, 0.0234
2754.38, 0.0233
2754.5, 0.0238
2754.62, 0.0243
2754.75, 0.024
2754.88, 0.0235
2755, 0.0237
2755.12, 0.0248
2755.25, 0.0253
2755.38, 0.0247
2755.5, 0.0236
2755.62, 0.0231
2755.75, 0.023
2755.88, 0.0231
2756, 0.0233
2756.12, 0.0236
2756.25, 0.0234
2756.38, 0.023
2756.5, 0.023
2756.62, 0.0234
2756.75, 0.0235
2756.88, 0.023
2757, 0.0227
2757.12, 0.0233
2757.25, 0.0239
2757.38, 0.0236
2757.5, 0.0227
2757.62, 0.0221
2757.75, 0.022
2757.88, 0.0222
2758, 0.0227
2758.12, 0.0232
2758.25, 0.0236
2758.38, 0.0238
2758.5, 0.0242
2758.62, 0.0248
2758.75, 0.0251
2758.88, 0.0245
2759, 0.0236
2759.12, 0.0232
2759.25, 0.0233
2759.38, 0.0233
2759.5, 0.023
2759.62, 0.0225
2759.75, 0.0224
2759.88, 0.0226
2760, 0.0229
2760.12, 0.0231
2760.25, 0.0227
2760.38, 0.0222
2760.5, 0.0223
2760.62, 0.0233
2760.75, 0.0243
2760.88, 0.0244
2761, 0.0237
2761.12, 0.0234
2761.25, 0.0239
2761.38, 0.0245
2761.5, 0.0245
2761.62, 0.0237
2761.75, 0.0229
2761.88, 0.0227
2762, 0.023
2762.12, 0.0232
2762.25, 0.0226
2762.38, 0.0216
2762.5, 0.021
2762.62, 0.0215
2762.75, 0.0224
2762.88, 0.0228
2763, 0.0226
2763.12, 0.0222
2763.25, 0.0224
2763.38, 0.0231
2763.5, 0.0237
2763.62, 0.0236
2763.75, 0.0228
2763.88, 0.0222
2764, 0.0226
2764.12, 0.0236
2764.25, 0.0239
2764.38, 0.0234
2764.5, 0.023
2764.62, 0.0235
2764.75, 0.0243
2764.88, 0.0245
2765, 0.0241
2765.12, 0.0236
2765.25, 0.0234
2765.38, 0.0234
2765.5, 0.0235
2765.62, 0.0237
2765.75, 0.0238
2765.88, 0.0237
2766, 0.0239
2766.12, 0.0244
2766.25, 0.0246
2766.38, 0.0239
2766.5, 0.0228
2766.62, 0.0221
2766.75, 0.0221
2766.88, 0.0225
2767, 0.0229
2767.12, 0.023
2767.25, 0.0234
2767.38, 0.024
2767.5, 0.0246
2767.62, 0.0246
2767.75, 0.0239
2767.88, 0.023
2768, 0.023
2768.12, 0.024
2768.25, 0.0248
2768.38, 0.0245
2768.5, 0.0232
2768.62, 0.0223
2768.75, 0.0224
2768.88, 0.0232
2769, 0.0239
2769.12, 0.0241
2769.25, 0.0239
2769.38, 0.024
2769.5, 0.0245
2769.62, 0.0249
2769.75, 0.0244
2769.88, 0.0234
2770, 0.0231
2770.12, 0.0236
2770.25, 0.0243
2770.38, 0.0242
2770.5, 0.0238
2770.62, 0.0236
2770.75, 0.0238
2770.88, 0.0238
2771, 0.0236
2771.12, 0.0232
2771.25, 0.0225
2771.38, 0.022
2771.5, 0.0223
2771.62, 0.0234
2771.75, 0.0241
2771.88, 0.0238
2772, 0.0233
2772.12, 0.0236
2772.25, 0.0243
2772.38, 0.0245
2772.5, 0.0239
2772.62, 0.0232
2772.75, 0.0225
2772.88, 0.0221
2773, 0.0221
2773.12, 0.0224
2773.25, 0.0226
2773.38, 0.0242
2773.5, 0.0299
2773.62, 0.0404
2773.75, 0.0507
2773.88, 0.0539
2774, 0.0482
2774.12, 0.0385
2774.25, 0.0309
2774.38, 0.0271
2774.5, 0.0257
2774.62, 0.0248
2774.75, 0.0238
2774.88, 0.0234
2775, 0.024
2775.12, 0.0256
2775.25, 0.0291
2775.38, 0.0387
2775.5, 0.059
2775.62, 0.0874
2775.75, 0.1086
2775.88, 0.1057
2776, 0.0806
2776.12, 0.0521
2776.25, 0.0346
2776.38, 0.0284
2776.5, 0.0267
2776.62, 0.0252
2776.75, 0.024
2776.88, 0.0237
2777, 0.0237
2777.12, 0.0238
2777.25, 0.024
2777.38, 0.0239
2777.5, 0.023
2777.62, 0.0225
2777.75, 0.0235
2777.88, 0.0251
2778, 0.0254
2778.12, 0.0243
2778.25, 0.0237
2778.38, 0.0241
2778.5, 0.0245
2778.62, 0.0239
2778.75, 0.0232
2778.88, 0.0229
2779, 0.0229
2779.12, 0.0229
2779.25, 0.0229
2779.38, 0.0228
2779.5, 0.0225
2779.62, 0.0223
2779.75, 0.0228
2779.88, 0.0236
2780, 0.024
2780.12, 0.0235
2780.25, 0.0229
2780.38, 0.023
2780.5, 0.0232
2780.62, 0.0229
2780.75, 0.0222
2780.88, 0.0218
2781, 0.0221
2781.12, 0.0231
2781.25, 0.0244
2781.38, 0.0246
2781.5, 0.0234
2781.62, 0.0221
2781.75, 0.0221
2781.88, 0.0233
2782, 0.0239
2782.12, 0.0234
2782.25, 0.0227
2782.38, 0.0229
2782.5, 0.0237
2782.62, 0.0238
2782.75, 0.0233
2782.88, 0.0228
2783, 0.0228
2783.12, 0.0232
2783.25, 0.0234
2783.38, 0.0232
2783.5, 0.023
2783.62, 0.0232
2783.75, 0.024
2783.88, 0.0248
2784, 0.0252
2784.12, 0.0251
2784.25, 0.0247
2784.38, 0.0242
2784.5, 0.0237
2784.62, 0.0234
2784.75, 0.0235
2784.88, 0.0233
2785, 0.0226
2785.12, 0.0219
2785.25, 0.0221
2785.38, 0.0227
2785.5, 0.0229
2785.62, 0.0226
2785.75, 0.0225
2785.88, 0.023
2786, 0.0236
2786.12, 0.0237
2786.25, 0.0237
2786.38, 0.0238
2786.5, 0.024
2786.62, 0.0239
2786.75, 0.0235
2786.88, 0.023
2787, 0.0225
2787.12, 0.0226
2787.25, 0.0234
2787.38, 0.024
2787.5, 0.0239
2787.62, 0.0233
2787.75, 0.023
2787.88, 0.0233
2788, 0.0236
2788.12, 0.0235
2788.25, 0.0232
2788.38, 0.0232
2788.5, 0.0235
2788.62, 0.0239
2788.75, 0.0241
2788.88, 0.0236
2789, 0.0229
2789.12, 0.0227
2789.25, 0.0234
2789.38, 0.0242
2789.5, 0.024
2789.62, 0.0231
2789.75, 0.0226
2789.88, 0.023
2790, 0.0236
2790.12, 0.0239
2790.25, 0.0237
2790.38, 0.0236
2790.5, 0.0238
2790.62, 0.0242
2790.75, 0.0241
2790.88, 0.0233
2791, 0.0224
2791.12, 0.0222
2791.25, 0.0231
2791.38, 0.024
2791.5, 0.0242
2791.62, 0.0236
2791.75, 0.0229
2791.88, 0.0225
2792, 0.0221
2792.12, 0.0221
2792.25, 0.0225
2792.38, 0.0229
2792.5, 0.0229
2792.62, 0.0227
2792.75, 0.0229
2792.88, 0.0232
2793, 0.023
2793.12, 0.0226
2793.25, 0.0227
2793.38, 0.0233
2793.5, 0.0237
2793.62, 0.0236
2793.75, 0.0234
2793.88, 0.0234
2794, 0.0235
2794.12, 0.0237
2794.25, 0.0238
2794.38, 0.0235
2794.5, 0.0227
2794.62, 0.0223
2794.75, 0.0227
2794.88, 0.0233
2795, 0.0232
2795.12, 0.0228
2795.25, 0.0232
2795.38, 0.024
2795.5, 0.0245
2795.62, 0.0245
2795.75, 0.0244
2795.88, 0.0243
2796, 0.0242
2796.12, 0.0243
2796.25, 0.025
2796.38, 0.0258
2796.5, 0.0273
2796.62, 0.0325
2796.75, 0.0431
2796.88, 0.0551
2797, 0.0605
2797.12, 0.0555
2797.25, 0.0443
2797.38, 0.034
2797.5, 0.0278
2797.62, 0.0254
2797.75, 0.0249
2797.88, 0.0248
2798, 0.0247
2798.12, 0.0254
2798.25, 0.027
2798.38, 0.0299
2798.5, 0.0369
2798.62, 0.0547
2798.75, 0.0859
2798.88, 0.1194
2799, 0.1317
2799.12, 0.112
2799.25, 0.0768
2799.38, 0.0482
2799.5, 0.0338
2799.62, 0.0285
2799.75, 0.026
2799.88, 0.0246
2800, 0.0243
2800.12, 0.0245
2800.25, 0.0244
2800.38, 0.0244
2800.5, 0.0248
2800.62, 0.0246
2800.75, 0.0239
2800.88, 0.0234
2801, 0.0235
2801.12, 0.0237
2801.25, 0.0234
2801.38, 0.0232
2801.5, 0.0234
2801.62, 0.0233
2801.75, 0.0229
2801.88, 0.0226
2802, 0.0227
2802.12, 0.0229
2802.25, 0.0233
2802.38, 0.0237
2802.5, 0.0241
2802.62, 0.0239
2802.75, 0.0237
2802.88, 0.0243
2803, 0.0251
2803.12, 0.025
2803.25, 0.024
2803.38, 0.0232
2803.5, 0.0233
2803.62, 0.0237
2803.75, 0.0236
2803.88, 0.023
2804, 0.0227
2804.12, 0.0226
2804.25, 0.0227
2804.38, 0.0228
2804.5, 0.023
2804.62, 0.0231
2804.75, 0.0232
2804.88, 0.0233
2805, 0.023
2805.12, 0.0225
2805.25, 0.0224
2805.38, 0.0229
2805.5, 0.0235
2805.62, 0.0238
2805.75, 0.0237
2805.88, 0.0237
2806, 0.0236
2806.12, 0.0234
2806.25, 0.0231
2806.38, 0.0232
2806.5, 0.0237
2806.62, 0.024
2806.75, 0.0239
2806.88, 0.0239
2807, 0.0241
2807.12, 0.0241
2807.25, 0.0239
2807.38, 0.0238
2807.5, 0.0239
2807.62, 0.0242
2807.75, 0.0246
2807.88, 0.025
2808, 0.025
2808.12, 0.0244
2808.25, 0.0239
2808.38, 0.0237
2808.5, 0.0238
2808.62, 0.0235
2808.75, 0.0227
2808.88, 0.0222
2809, 0.0222
2809.12, 0.0224
2809.25, 0.0225
2809.38, 0.0225
2809.5, 0.0226
2809.62, 0.0229
2809.75, 0.0232
2809.88, 0.0234
2810, 0.0229
2810.12, 0.022
2810.25, 0.0218
2810.38, 0.0229
2810.5, 0.0244
2810.62, 0.025
2810.75, 0.0246
2810.88, 0.0236
2811, 0.0228
2811.12, 0.0225
2811.25, 0.0228
2811.38, 0.0235
2811.5, 0.0238
2811.62, 0.0234
2811.75, 0.0227
2811.88, 0.0225
2812, 0.0227
2812.12, 0.0225
2812.25, 0.0224
2812.38, 0.0228
2812.5, 0.0238
2812.62, 0.0244
2812.75, 0.0245
2812.88, 0.0242
2813, 0.024
2813.12, 0.0238
2813.25, 0.0237
2813.38, 0.0237
2813.5, 0.0236
2813.62, 0.0232
2813.75, 0.0229
2813.88, 0.0231
2814, 0.0233
2814.12, 0.0232
2814.25, 0.0231
2814.38, 0.0235
2814.5, 0.0241
2814.62, 0.0242
2814.75, 0.0238
2814.88, 0.0235
2815, 0.0234
2815.12, 0.0235
2815.25, 0.0236
2815.38, 0.0237
2815.5, 0.0236
2815.62, 0.0232
2815.75, 0.0233
2815.88, 0.0238
2816, 0.0242
2816.12, 0.0237
2816.25, 0.0228
2816.38, 0.0226
2816.5, 0.0228
2816.62, 0.0231
2816.75, 0.0233
2816.88, 0.0235
2817, 0.0233
2817.12, 0.0229
2817.25, 0.023
2817.38, 0.0235
2817.5, 0.0236
2817.62, 0.0229
2817.75, 0.0227
2817.88, 0.0239
2818, 0.0253
2818.12, 0.0254
2818.25, 0.0247
2818.38, 0.0243
2818.5, 0.0243
2818.62, 0.0243
2818.75, 0.0244
2818.88, 0.025
2819, 0.0261
2819.12, 0.0285
2819.25, 0.0353
2819.38, 0.0476
2819.5, 0.0598
2819.62, 0.0632
2819.75, 0.0553
2819.88, 0.0428
2820, 0.033
2820.12, 0.0282
2820.25, 0.0264
2820.38, 0.0258
2820.5, 0.0255
2820.62, 0.0257
2820.75, 0.0268
2820.88, 0.0289
2821, 0.0325
2821.12, 0.0408
2821.25, 0.0601
2821.38, 0.0926
2821.5, 0.1269
2821.62, 0.1393
2821.75, 0.1191
2821.88, 0.0826
2822, 0.0526
2822.12, 0.0367
2822.25, 0.0305
2822.38, 0.0277
2822.5, 0.0263
2822.62, 0.0257
2822.75, 0.0251
2822.88, 0.024
2823, 0.0234
2823.12, 0.0239
2823.25, 0.0245
2823.38, 0.0246
2823.5, 0.0246
2823.62, 0.0246
2823.75, 0.0242
2823.88, 0.0235
2824, 0.0232
2824.12, 0.0236
2824.25, 0.0243
2824.38, 0.0246
2824.5, 0.0247
2824.62, 0.0249
2824.75, 0.0249
2824.88, 0.0248
2825, 0.0248
2825.12, 0.0247
2825.25, 0.0244
2825.38, 0.024
2825.5, 0.0239
2825.62, 0.0239
2825.75, 0.0237
2825.88, 0.0233
2826, 0.0234
2826.12, 0.0239
2826.25, 0.0239
2826.38, 0.0233
2826.5, 0.0228
2826.62, 0.023
2826.75, 0.0235
2826.88, 0.0238
2827, 0.0238
2827.12, 0.0237
2827.25, 0.0236
2827.38, 0.0238
2827.5, 0.0243
2827.62, 0.0246
2827.75, 0.0242
2827.88, 0.0232
2828, 0.0224
2828.12, 0.0226
2828.25, 0.0235
2828.38, 0.0243
2828.5, 0.0245
2828.62, 0.0242
2828.75, 0.0238
2828.88, 0.0239
2829, 0.0242
2829.12, 0.0242
2829.25, 0.0236
2829.38, 0.0231
2829.5, 0.0233
2829.62, 0.0241
2829.75, 0.0247
2829.88, 0.0248
2830, 0.0248
2830.12, 0.0248
2830.25, 0.0248
2830.38, 0.0246
2830.5, 0.0243
2830.62, 0.024
2830.75, 0.0237
2830.88, 0.0236
2831, 0.0235
2831.12, 0.0231
2831.25, 0.0221
2831.38, 0.0213
2831.5, 0.0215
2831.62, 0.0227
2831.75, 0.0237
2831.88, 0.0238
2832, 0.0231
2832.12, 0.0225
2832.25, 0.0223
2832.38, 0.0224
2832.5, 0.0227
2832.62, 0.023
2832.75, 0.0232
2832.88, 0.0234
2833, 0.0235
2833.12, 0.0233
2833.25, 0.023
2833.38, 0.023
2833.5, 0.0235
2833.62, 0.0243
2833.75, 0.0247
2833.88, 0.0242
2834, 0.0233
2834.12, 0.0227
2834.25, 0.0229
2834.38, 0.0235
2834.5, 0.0239
2834.62, 0.0237
2834.75, 0.0234
2834.88, 0.0236
2835, 0.0242
2835.12, 0.0246
2835.25, 0.0244
2835.38, 0.0238
2835.5, 0.0232
2835.62, 0.0229
2835.75, 0.0231
2835.88, 0.0235
2836, 0.024
2836.12, 0.0241
2836.25, 0.0239
2836.38, 0.0239
2836.5, 0.024
2836.62, 0.0237
2836.75, 0.0233
2836.88, 0.0233
2837, 0.0238
2837.12, 0.0243
2837.25, 0.0243
2837.38, 0.0239
2837.5, 0.0235
2837.62, 0.0234
2837.75, 0.0235
2837.88, 0.0236
2838, 0.0235
2838.12, 0.0231
2838.25, 0.0227
2838.38, 0.0226
2838.5, 0.0226
2838.62, 0.0224
2838.75, 0.0222
2838.88, 0.0225
2839, 0.0232
2839.12, 0.0237
2839.25, 0.0238
2839.38, 0.0236
2839.5, 0.0233
2839.62, 0.023
2839.75, 0.023
2839.88, 0.0235
2840, 0.0237
2840.12, 0.0232
2840.25, 0.0226
2840.38, 0.023
2840.5, 0.024
2840.62, 0.0247
2840.75, 0.0247
2840.88, 0.0247
2841, 0.0254
2841.12, 0.0279
2841.25, 0.034
2841.38, 0.044
2841.5, 0.0541
2841.62, 0.0577
2841.75, 0.0526
2841.88, 0.0432
2842, 0.035
2842.12, 0.0298
2842.25, 0.0269
2842.38, 0.0259
2842.5, 0.0265
2842.62, 0.0277
2842.75, 0.0284
2842.88, 0.0288
2843, 0.0301
2843.12, 0.0348
2843.25, 0.0474
2843.38, 0.0719
2843.5, 0.1036
2843.62, 0.1254
2843.75, 0.1206
2843.88, 0.0931
2844, 0.0625
2844.12, 0.042
2844.25, 0.0322
2844.38, 0.0284
2844.5, 0.027
2844.62, 0.0267
2844.75, 0.0261
2844.88, 0.0245
2845, 0.0231
2845.12, 0.0232
2845.25, 0.0244
2845.38, 0.0253
2845.5, 0.0254
2845.62, 0.0253
2845.75, 0.0252
2845.88, 0.025
2846, 0.0249
2846.12, 0.0248
2846.25, 0.0247
2846.38, 0.0242
2846.5, 0.024
2846.62, 0.0243
2846.75, 0.0247
2846.88, 0.0245
2847, 0.0239
2847.12, 0.0234
2847.25, 0.0233
2847.38, 0.0231
2847.5, 0.0229
2847.62, 0.0227
2847.75, 0.0228
2847.88, 0.0231
2848, 0.0234
2848.12, 0.0239
2848.25, 0.024
2848.38, 0.0238
2848.5, 0.0235
2848.62, 0.0233
2848.75, 0.0234
2848.88, 0.0235
2849, 0.0236
2849.12, 0.0236
2849.25, 0.0237
2849.38, 0.0239
2849.5, 0.0242
2849.62, 0.0241
2849.75, 0.0236
2849.88, 0.0234
2850, 0.0239
2850.12, 0.0248
2850.25, 0.025
2850.38, 0.0243
2850.5, 0.0237
2850.62, 0.024
2850.75, 0.0248
2850.88, 0.025
2851, 0.0245
2851.12, 0.0239
2851.25, 0.0237
2851.38, 0.0243
2851.5, 0.0251
2851.62, 0.0257
2851.75, 0.0258
2851.88, 0.0256
2852, 0.0256
2852.12, 0.0258
2852.25, 0.0255
2852.38, 0.0247
2852.5, 0.024
2852.62, 0.0239
2852.75, 0.0242
2852.88, 0.0244
2853, 0.0243
2853.12, 0.0241
2853.25, 0.024
2853.38, 0.0242
2853.5, 0.0244
2853.62, 0.0246
2853.75, 0.0245
2853.88, 0.0239
2854, 0.0232
2854.12, 0.0228
2854.25, 0.0229
2854.38, 0.0232
2854.5, 0.0236
2854.62, 0.0239
2854.75, 0.0243
2854.88, 0.0245
2855, 0.0244
2855.12, 0.024
2855.25, 0.0239
2855.38, 0.0246
2855.5, 0.0257
2855.62, 0.0261
2855.75, 0.0254
2855.88, 0.0244
2856, 0.024
2856.12, 0.0243
2856.25, 0.0249
2856.38, 0.0254
2856.5, 0.0255
2856.62, 0.0253
2856.75, 0.0248
2856.88, 0.0243
2857, 0.024
2857.12, 0.0237
2857.25, 0.0234
2857.38, 0.0235
2857.5, 0.0244
2857.62, 0.025
2857.75, 0.0249
2857.88, 0.0243
2858, 0.0241
2858.12, 0.0245
2858.25, 0.0247
2858.38, 0.0243
2858.5, 0.0235
2858.62, 0.0228
2858.75, 0.0224
2858.88, 0.0223
2859, 0.0224
2859.12, 0.0226
2859.25, 0.0227
2859.38, 0.0229
2859.5, 0.0234
2859.62, 0.0242
2859.75, 0.0245
2859.88, 0.0241
2860, 0.0233
2860.12, 0.0228
2860.25, 0.0229
2860.38, 0.0233
2860.5, 0.0237
2860.62, 0.024
2860.75, 0.024
2860.88, 0.0238
2861, 0.0236
2861.12, 0.0233
2861.25, 0.0229
2861.38, 0.0229
2861.5, 0.0236
2861.62, 0.0252
2861.75, 0.0267
2861.88, 0.0269
2862, 0.026
2862.12, 0.0247
2862.25, 0.0242
2862.38, 0.0245
2862.5, 0.0253
2862.62, 0.0273
2862.75, 0.0318
2862.88, 0.0384
2863, 0.0441
2863.12, 0.045
2863.25, 0.0409
2863.38, 0.0348
2863.5, 0.0298
2863.62, 0.0268
2863.75, 0.0251
2863.88, 0.0243
2864, 0.0243
2864.12, 0.0248
2864.25, 0.0257
2864.38, 0.0269
2864.5, 0.0288
2864.62, 0.0328
2864.75, 0.042
2864.88, 0.0581
2865, 0.0766
2865.12, 0.0865
2865.25, 0.0801
2865.38, 0.0618
2865.5, 0.0434
2865.62, 0.0322
2865.75, 0.028
2865.88, 0.027
2866, 0.0263
2866.12, 0.0252
2866.25, 0.0239
2866.38, 0.0229
2866.5, 0.023
2866.62, 0.0235
2866.75, 0.0237
2866.88, 0.0237
2867, 0.0241
2867.12, 0.025
2867.25, 0.0251
2867.38, 0.0242
2867.5, 0.0233
2867.62, 0.0234
2867.75, 0.0241
2867.88, 0.0245
2868, 0.0247
2868.12, 0.0247
2868.25, 0.0244
2868.38, 0.0238
2868.5, 0.0232
2868.62, 0.023
2868.75, 0.023
2868.88, 0.0231
2869, 0.0235
2869.12, 0.0241
2869.25, 0.0245
2869.38, 0.0242
2869.5, 0.0236
2869.62, 0.0234
2869.75, 0.0235
2869.88, 0.0237
2870, 0.0236
2870.12, 0.0233
2870.25, 0.023
2870.38, 0.0228
2870.5, 0.0229
2870.62, 0.0232
2870.75, 0.0231
2870.88, 0.0228
2871, 0.0228
2871.12, 0.0235
2871.25, 0.024
2871.38, 0.0238
2871.5, 0.0234
2871.62, 0.0235
2871.75, 0.0242
2871.88, 0.0246
2872, 0.0245
2872.12, 0.024
2872.25, 0.0234
2872.38, 0.0228
2872.5, 0.0223
2872.62, 0.0222
2872.75, 0.0222
2872.88, 0.0222
2873, 0.0225
2873.12, 0.0232
2873.25, 0.0243
2873.38, 0.025
2873.5, 0.0246
2873.62, 0.0234
2873.75, 0.0222
2873.88, 0.0218
2874, 0.0223
2874.12, 0.0226
2874.25, 0.0223
2874.38, 0.0219
2874.5, 0.0224
2874.62, 0.0235
2874.75, 0.0244
2874.88, 0.0244
2875, 0.0239
2875.12, 0.0233
2875.25, 0.0229
2875.38, 0.0227
2875.5, 0.0225
2875.62, 0.0224
2875.75, 0.0222
2875.88, 0.0222
2876, 0.0229
2876.12, 0.0237
2876.25, 0.0241
2876.38, 0.0238
2876.5, 0.0236
2876.62, 0.0241
2876.75, 0.0248
2876.88, 0.0246
2877, 0.0234
2877.12, 0.0222
2877.25, 0.0218
2877.38, 0.0224
2877.5, 0.0235
2877.62, 0.024
2877.75, 0.0236
2877.88, 0.023
2878, 0.0229
2878.12, 0.0231
2878.25, 0.0233
2878.38, 0.023
2878.5, 0.0229
2878.62, 0.0234
2878.75, 0.0241
2878.88, 0.0242
2879, 0.0236
2879.12, 0.0229
2879.25, 0.0225
2879.38, 0.0226
2879.5, 0.0232
2879.62, 0.0237
2879.75, 0.0237
2879.88, 0.0232
2880, 0.0229
2880.12, 0.0231
2880.25, 0.0235
2880.38, 0.0236
2880.5, 0.0234
2880.62, 0.0232
2880.75, 0.0231
2880.88, 0.023
2881, 0.0228
2881.12, 0.0227
2881.25, 0.0229
2881.38, 0.0233
2881.5, 0.0237
2881.62, 0.0238
2881.75, 0.0232
2881.88, 0.0225
2882, 0.0221
2882.12, 0.0225
2882.25, 0.0233
2882.38, 0.0239
2882.5, 0.0241
2882.62, 0.024
2882.75, 0.0239
2882.88, 0.0239
2883, 0.0238
2883.12, 0.0235
2883.25, 0.0231
2883.38, 0.0228
2883.5, 0.023
2883.62, 0.0232
2883.75, 0.0229
2883.88, 0.0223
2884, 0.0222
2884.12, 0.0228
2884.25, 0.0233
2884.38, 0.0234
2884.5, 0.0232
2884.62, 0.0235
2884.75, 0.0242
2884.88, 0.025
2885, 0.0253
2885.12, 0.025
2885.25, 0.0243
2885.38, 0.0237
2885.5, 0.0233
2885.62, 0.0233
2885.75, 0.0232
2885.88, 0.0232
2886, 0.0236
2886.12, 0.0243
2886.25, 0.0247
2886.38, 0.0245
2886.5, 0.0238
2886.62, 0.0232
2886.75, 0.0231
2886.88, 0.0232
2887, 0.0234
2887.12, 0.0232
2887.25, 0.023
2887.38, 0.0232
2887.5, 0.0239
2887.62, 0.0245
2887.75, 0.0245
2887.88, 0.0239
2888, 0.0234
2888.12, 0.0235
2888.25, 0.024
2888.38, 0.0245
2888.5, 0.0243
2888.62, 0.0236
2888.75, 0.0227
2888.88, 0.0225
2889, 0.0229
2889.12, 0.0234
2889.25, 0.0233
2889.38, 0.0229
2889.5, 0.0229
2889.62, 0.0233
2889.75, 0.0238
2889.88, 0.024
2890, 0.024
2890.12, 0.0238
2890.25, 0.0235
2890.38, 0.0234
2890.5, 0.0239
2890.62, 0.0244
2890.75, 0.0244
2890.88, 0.024
2891, 0.0239
2891.12, 0.0239
2891.25, 0.0234
2891.38, 0.0225
2891.5, 0.0218
2891.62, 0.0219
2891.75, 0.0224
2891.88, 0.0226
2892, 0.0227
2892.12, 0.0229
2892.25, 0.0232
2892.38, 0.0233
2892.5, 0.0232
2892.62, 0.0231
2892.75, 0.0231
2892.88, 0.0234
2893, 0.0242
2893.12, 0.0249
2893.25, 0.0249
2893.38, 0.0241
2893.5, 0.0234
2893.62, 0.0235
2893.75, 0.024
2893.88, 0.024
2894, 0.0234
2894.12, 0.0228
2894.25, 0.0226
2894.38, 0.0225
2894.5, 0.0224
2894.62, 0.0223
2894.75, 0.0224
2894.88, 0.0227
2895, 0.0234
2895.12, 0.0242
2895.25, 0.0247
2895.38, 0.0243
2895.5, 0.0234
2895.62, 0.0229
2895.75, 0.0229
2895.88, 0.0231
2896, 0.0229
2896.12, 0.0224
2896.25, 0.0224
2896.38, 0.0231
2896.5, 0.024
2896.62, 0.0244
2896.75, 0.0241
2896.88, 0.0237
2897, 0.0235
2897.12, 0.0233
2897.25, 0.0227
2897.38, 0.0222
2897.5, 0.0225
2897.62, 0.0237
2897.75, 0.025
2897.88, 0.0256
2898, 0.0253
2898.12, 0.0247
2898.25, 0.024
2898.38, 0.0236
2898.5, 0.0234
2898.62, 0.0231
2898.75, 0.0227
2898.88, 0.0228
2899, 0.0234
2899.12, 0.0241
2899.25, 0.024
2899.38, 0.023
2899.5, 0.0222
2899.62, 0.022
2899.75, 0.0223
2899.88, 0.0229
2900, 0.0234
2900.12, 0.0234
2900.25, 0.0229
2900.38, 0.0224
2900.5, 0.0226
2900.62, 0.0233
2900.75, 0.0234
2900.88, 0.023
2901, 0.023
2901.12, 0.0239
2901.25, 0.0249
2901.38, 0.0252
2901.5, 0.025
2901.62, 0.0246
2901.75, 0.0241
2901.88, 0.0235
2902, 0.023
2902.12, 0.0228
2902.25, 0.0231
2902.38, 0.0236
2902.5, 0.0243
2902.62, 0.0247
2902.75, 0.0245
2902.88, 0.0238
2903, 0.0235
2903.12, 0.0241
2903.25, 0.0246
2903.38, 0.0245
2903.5, 0.0241
2903.62, 0.0249
2903.75, 0.0283
2903.88, 0.0345
2904, 0.0415
2904.12, 0.0456
2904.25, 0.044
2904.38, 0.0381
2904.5, 0.032
2904.62, 0.0285
2904.75, 0.027
2904.88, 0.026
2905, 0.0255
2905.12, 0.0258
2905.25, 0.0263
2905.38, 0.0264
2905.5, 0.0263
2905.62, 0.0272
2905.75, 0.0308
2905.88, 0.0395
2906, 0.0553
2906.12, 0.0747
2906.25, 0.0877
2906.38, 0.085
2906.5, 0.0688
2906.62, 0.0498
2906.75, 0.0364
2906.88, 0.0297
2907, 0.027
2907.12, 0.026
2907.25, 0.0257
2907.38, 0.0256
2907.5, 0.025
2907.62, 0.0243
2907.75, 0.0241
2907.88, 0.0243
2908, 0.0246
2908.12, 0.0248
2908.25, 0.025
2908.38, 0.0249
2908.5, 0.0248
2908.62, 0.0249
2908.75, 0.025
2908.88, 0.0245
2909, 0.0233
2909.12, 0.0224
2909.25, 0.0224
2909.38, 0.0231
2909.5, 0.0237
2909.62, 0.0238
2909.75, 0.0236
2909.88, 0.0234
2910, 0.0233
2910.12, 0.0234
2910.25, 0.0235
2910.38, 0.0235
2910.5, 0.0237
2910.62, 0.024
2910.75, 0.0242
2910.88, 0.024
2911, 0.0236
2911.12, 0.0236
2911.25, 0.024
2911.38, 0.0245
2911.5, 0.0247
2911.62, 0.0243
2911.75, 0.0235
2911.88, 0.0227
2912, 0.0227
2912.12, 0.0233
2912.25, 0.0238
2912.38, 0.0238
2912.5, 0.0238
2912.62, 0.0242
2912.75, 0.0246
2912.88, 0.0242
2913, 0.0233
2913.12, 0.0226
2913.25, 0.0226
2913.38, 0.0229
2913.5, 0.023
2913.62, 0.023
2913.75, 0.0229
2913.88, 0.0229
2914, 0.023
2914.12, 0.0233
2914.25, 0.0234
2914.38, 0.0231
2914.5, 0.0229
2914.62, 0.0231
2914.75, 0.0234
2914.88, 0.0233
2915, 0.023
2915.12, 0.0232
2915.25, 0.0238
2915.38, 0.024
2915.5, 0.0238
2915.62, 0.0236
2915.75, 0.0236
2915.88, 0.0235
2916, 0.0232
2916.12, 0.0232
2916.25, 0.0235
2916.38, 0.0237
2916.5, 0.0234
2916.62, 0.0232
2916.75, 0.0234
2916.88, 0.0236
2917, 0.0237
2917.12, 0.024
2917.25, 0.0243
2917.38, 0.0243
2917.5, 0.0241
2917.62, 0.0239
2917.75, 0.0239
2917.88, 0.0238
2918, 0.0238
2918.12, 0.0241
2918.25, 0.0245
2918.38, 0.0244
2918.5, 0.0239
2918.62, 0.0235
2918.75, 0.0236
2918.88, 0.0236
2919, 0.0235
2919.12, 0.0234
2919.25, 0.0237
2919.38, 0.0242
2919.5, 0.0246
2919.62, 0.025
2919.75, 0.0251
2919.88, 0.0245
2920, 0.0237
2920.12, 0.0236
2920.25, 0.0244
2920.38, 0.0252
2920.5, 0.0254
2920.62, 0.0252
2920.75, 0.025
2920.88, 0.0248
2921, 0.0244
2921.12, 0.024
2921.25, 0.0239
2921.38, 0.0239
2921.5, 0.0238
2921.62, 0.0236
2921.75, 0.0236
2921.88, 0.0239
2922, 0.0246
2922.12, 0.0255
2922.25, 0.0261
2922.38, 0.0263
2922.5, 0.0263
2922.62, 0.0261
2922.75, 0.0258
2922.88, 0.0254
2923, 0.0255
2923.12, 0.0265
2923.25, 0.0291
2923.38, 0.0349
2923.5, 0.0452
2923.62, 0.0574
2923.75, 0.0645
2923.88, 0.0607
2924, 0.0488
2924.12, 0.037
2924.25, 0.0303
2924.38, 0.0275
2924.5, 0.0263
2924.62, 0.0259
2924.75, 0.0264
2924.88, 0.0268
2925, 0.0267
2925.12, 0.0272
2925.25, 0.0296
2925.38, 0.0347
2925.5, 0.0467
2925.62, 0.0709
2925.75, 0.1057
2925.88, 0.1345
2926, 0.1358
2926.12, 0.1086
2926.25, 0.0734
2926.38, 0.0477
2926.5, 0.0346
2926.62, 0.0292
2926.75, 0.0269
2926.88, 0.0263
2927, 0.0264
2927.12, 0.0262
2927.25, 0.0255
2927.38, 0.0249
2927.5, 0.0246
2927.62, 0.0243
2927.75, 0.0244
2927.88, 0.025
2928, 0.0256
2928.12, 0.0254
2928.25, 0.0246
2928.38, 0.0242
2928.5, 0.0245
2928.62, 0.0251
2928.75, 0.0251
2928.88, 0.0248
2929, 0.0246
2929.12, 0.025
2929.25, 0.0255
2929.38, 0.0256
2929.5, 0.0251
2929.62, 0.0244
2929.75, 0.0239
2929.88, 0.0236
2930, 0.0231
2930.12, 0.0226
2930.25, 0.0224
2930.38, 0.0227
2930.5, 0.0233
2930.62, 0.0241
2930.75, 0.0248
2930.88, 0.0251
2931, 0.0249
2931.12, 0.0243
2931.25, 0.0242
2931.38, 0.0246
2931.5, 0.0251
2931.62, 0.025
2931.75, 0.0244
2931.88, 0.0242
2932, 0.0248
2932.12, 0.0254
2932.25, 0.0253
2932.38, 0.0248
2932.5, 0.0242
2932.62, 0.024
2932.75, 0.0242
2932.88, 0.0242
2933, 0.0241
2933.12, 0.0241
2933.25, 0.0244
2933.38, 0.0245
2933.5, 0.0243
2933.62, 0.0239
2933.75, 0.0239
2933.88, 0.0243
2934, 0.0249
2934.12, 0.0251
2934.25, 0.0249
2934.38, 0.0246
2934.5, 0.0244
2934.62, 0.0243
2934.75, 0.0244
2934.88, 0.0248
2935, 0.0249
2935.12, 0.0245
2935.25, 0.0238
2935.38, 0.0232
2935.5, 0.0229
2935.62, 0.0229
2935.75, 0.0233
2935.88, 0.0241
2936, 0.0251
2936.12, 0.0254
2936.25, 0.0248
2936.38, 0.0237
2936.5, 0.0231
2936.62, 0.0233
2936.75, 0.0239
2936.88, 0.0243
2937, 0.0242
2937.12, 0.0237
2937.25, 0.0235
2937.38, 0.024
2937.5, 0.0247
2937.62, 0.025
2937.75, 0.0245
2937.88, 0.0239
2938, 0.024
2938.12, 0.0247
2938.25, 0.0249
2938.38, 0.0242
2938.5, 0.0233
2938.62, 0.0231
2938.75, 0.0231
2938.88, 0.023
2939, 0.0227
2939.12, 0.0227
2939.25, 0.0233
2939.38, 0.0239
2939.5, 0.0243
2939.62, 0.0242
2939.75, 0.0237
2939.88, 0.0234
2940, 0.0239
2940.12, 0.0247
2940.25, 0.0249
2940.38, 0.024
2940.5, 0.0231
2940.62, 0.0234
2940.75, 0.0245
2940.88, 0.0251
2941, 0.0248
2941.12, 0.0242
2941.25, 0.0241
2941.38, 0.0245
2941.5, 0.0251
2941.62, 0.0256
2941.75, 0.0254
2941.88, 0.025
2942, 0.0253
2942.12, 0.0268
2942.25, 0.0302
2942.38, 0.037
2942.5, 0.049
2942.62, 0.0635
2942.75, 0.0722
2942.88, 0.0679
2943, 0.0532
2943.12, 0.0383
2943.25, 0.0295
2943.38, 0.0265
2943.5, 0.0259
2943.62, 0.0263
2943.75, 0.0269
2943.88, 0.027
2944, 0.0265
2944.12, 0.027
2944.25, 0.0293
2944.38, 0.0339
2944.5, 0.0456
2944.62, 0.0719
2944.75, 0.1129
2944.88, 0.1509
2945, 0.1579
2945.12, 0.1275
2945.25, 0.084
2945.38, 0.0512
2945.5, 0.0348
2945.62, 0.0291
2945.75, 0.0272
2945.88, 0.0261
2946, 0.0254
2946.12, 0.0248
2946.25, 0.0242
2946.38, 0.0239
2946.5, 0.0238
2946.62, 0.0236
2946.75, 0.0234
2946.88, 0.0236
2947, 0.0238
2947.12, 0.0233
2947.25, 0.0221
2947.38, 0.0213
2947.5, 0.0219
2947.62, 0.0233
2947.75, 0.0243
2947.88, 0.0241
2948, 0.0233
2948.12, 0.0228
2948.25, 0.0232
2948.38, 0.0239
2948.5, 0.024
2948.62, 0.0238
2948.75, 0.0237
2948.88, 0.024
2949, 0.0243
2949.12, 0.0242
2949.25, 0.0238
2949.38, 0.0238
2949.5, 0.0242
2949.62, 0.0249
2949.75, 0.0254
2949.88, 0.0252
2950, 0.0244
2950.12, 0.0234
2950.25, 0.0229
2950.38, 0.0228
2950.5, 0.0227
2950.62, 0.0224
2950.75, 0.0223
2950.88, 0.0227
2951, 0.0234
2951.12, 0.0238
2951.25, 0.0235
2951.38, 0.0227
2951.5, 0.0223
2951.62, 0.0228
2951.75, 0.0239
2951.88, 0.0248
2952, 0.0247
2952.12, 0.024
2952.25, 0.0235
2952.38, 0.0232
2952.5, 0.0227
2952.62, 0.0219
2952.75, 0.0217
2952.88, 0.0226
2953, 0.0236
2953.12, 0.0236
2953.25, 0.0229
2953.38, 0.0223
2953.5, 0.0224
2953.62, 0.0229
2953.75, 0.0235
2953.88, 0.0237
2954, 0.0233
2954.12, 0.0228
2954.25, 0.0229
2954.38, 0.0238
2954.5, 0.0247
2954.62, 0.0245
2954.75, 0.0234
2954.88, 0.0225
2955, 0.0225
2955.12, 0.0231
2955.25, 0.0235
2955.38, 0.0234
2955.5, 0.0232
2955.62, 0.0235
2955.75, 0.0239
2955.88, 0.024
2956, 0.0235
2956.12, 0.0228
2956.25, 0.0228
2956.38, 0.0239
2956.5, 0.0247
2956.62, 0.0243
2956.75, 0.023
2956.88, 0.0221
2957, 0.0224
2957.12, 0.0235
2957.25, 0.0242
2957.38, 0.0243
2957.5, 0.0239
2957.62, 0.0237
2957.75, 0.0237
2957.88, 0.0239
2958, 0.0239
2958.12, 0.0237
2958.25, 0.0236
2958.38, 0.024
2958.5, 0.0245
2958.62, 0.0245
2958.75, 0.0239
2958.88, 0.0234
2959, 0.0233
2959.12, 0.0233
2959.25, 0.0234
2959.38, 0.0234
2959.5, 0.0232
2959.62, 0.0228
2959.75, 0.0227
2959.88, 0.0232
2960, 0.0242
2960.12, 0.0247
2960.25, 0.0248
2960.38, 0.0252
2960.5, 0.0264
2960.62, 0.0294
2960.75, 0.0368
2960.88, 0.05
2961, 0.0646
2961.12, 0.071
2961.25, 0.0637
2961.38, 0.0484
2961.5, 0.0351
2961.62, 0.0284
2961.75, 0.0262
2961.88, 0.0251
2962, 0.0248
2962.12, 0.0253
2962.25, 0.0257
2962.38, 0.0259
2962.5, 0.0269
2962.62, 0.029
2962.75, 0.0332
2962.88, 0.0447
2963, 0.0714
2963.12, 0.1129
2963.25, 0.15
2963.38, 0.155
2963.5, 0.1237
2963.62, 0.0815
2963.75, 0.0509
2963.88, 0.0361
2964, 0.0305
2964.12, 0.0278
2964.25, 0.026
2964.38, 0.0249
2964.5, 0.0239
2964.62, 0.0232
2964.75, 0.0233
2964.88, 0.024
2965, 0.0248
2965.12, 0.0252
2965.25, 0.0256
2965.38, 0.0256
2965.5, 0.0248
2965.62, 0.0237
2965.75, 0.0231
2965.88, 0.023
2966, 0.0228
2966.12, 0.0225
2966.25, 0.0226
2966.38, 0.023
2966.5, 0.0233
2966.62, 0.0234
2966.75, 0.0236
2966.88, 0.0236
2967, 0.0233
2967.12, 0.0229
2967.25, 0.0228
2967.38, 0.0231
2967.5, 0.0232
2967.62, 0.0231
2967.75, 0.023
2967.88, 0.0232
2968, 0.0234
2968.12, 0.0235
2968.25, 0.0237
2968.38, 0.0237
2968.5, 0.0234
2968.62, 0.0231
2968.75, 0.0231
2968.88, 0.0235
2969, 0.0235
2969.12, 0.023
2969.25, 0.0225
2969.38, 0.0225
2969.5, 0.0229
2969.62, 0.0231
2969.75, 0.0232
2969.88, 0.0233
2970, 0.0235
2970.12, 0.0238
2970.25, 0.0242
2970.38, 0.0244
2970.5, 0.0242
2970.62, 0.0238
2970.75, 0.0233
2970.88, 0.0228
2971, 0.0221
2971.12, 0.0217
2971.25, 0.022
2971.38, 0.0228
2971.5, 0.0235
2971.62, 0.0236
2971.75, 0.0233
2971.88, 0.0229
2972, 0.0224
2972.12, 0.0222
2972.25, 0.0224
2972.38, 0.0229
2972.5, 0.0235
2972.62, 0.024
2972.75, 0.0243
2972.88, 0.0245
2973, 0.0246
2973.12, 0.0246
2973.25, 0.0244
2973.38, 0.024
2973.5, 0.0235
2973.62, 0.0232
2973.75, 0.0232
2973.88, 0.0232
2974, 0.0231
2974.12, 0.0231
2974.25, 0.0236
2974.38, 0.0243
2974.5, 0.0247
2974.62, 0.0246
2974.75, 0.0242
2974.88, 0.0237
2975, 0.0232
2975.12, 0.0229
2975.25, 0.0227
2975.38, 0.0225
2975.5, 0.0225
2975.62, 0.0228
2975.75, 0.0231
2975.88, 0.0233
2976, 0.0233
2976.12, 0.0236
2976.25, 0.024
2976.38, 0.0241
2976.5, 0.0239
2976.62, 0.0238
2976.75, 0.0241
2976.88, 0.0242
2977, 0.0239
2977.12, 0.0236
2977.25, 0.0237
2977.38, 0.024
2977.5, 0.024
2977.62, 0.024
2977.75, 0.0244
2977.88, 0.0248
2978, 0.0246
2978.12, 0.0242
2978.25, 0.0252
2978.38, 0.0296
2978.5, 0.0392
2978.62, 0.052
2978.75, 0.0618
2978.88, 0.0614
2979, 0.0509
2979.12, 0.0377
2979.25, 0.0291
2979.38, 0.0256
2979.5, 0.0242
2979.62, 0.0232
2979.75, 0.0234
2979.88, 0.0245
2980, 0.0252
2980.12, 0.0256
2980.25, 0.0267
2980.38, 0.0287
2980.5, 0.0329
2980.62, 0.0451
2980.75, 0.0717
2980.88, 0.108
2981, 0.1335
2981.12, 0.1277
2981.25, 0.0956
2981.38, 0.061
2981.5, 0.039
2981.62, 0.0298
2981.75, 0.0268
2981.88, 0.0249
2982, 0.0232
2982.12, 0.0219
2982.25, 0.0211
2982.38, 0.021
2982.5, 0.0216
2982.62, 0.0222
2982.75, 0.0225
2982.88, 0.0227
2983, 0.0231
2983.12, 0.0235
2983.25, 0.0235
2983.38, 0.023
2983.5, 0.0224
2983.62, 0.0224
2983.75, 0.023
2983.88, 0.0238
2984, 0.0243
2984.12, 0.0241
2984.25, 0.024
2984.38, 0.0244
2984.5, 0.0248
2984.62, 0.0245
2984.75, 0.0235
2984.88, 0.023
2985, 0.0233
2985.12, 0.024
2985.25, 0.0241
2985.38, 0.0236
2985.5, 0.0227
2985.62, 0.0221
2985.75, 0.0224
2985.88, 0.0233
2986, 0.0239
2986.12, 0.0236
2986.25, 0.0229
2986.38, 0.0227
2986.5, 0.0232
2986.62, 0.0236
2986.75, 0.0235
2986.88, 0.0233
2987, 0.0233
2987.12, 0.0234
2987.25, 0.0233
2987.38, 0.023
2987.5, 0.0225
2987.62, 0.0222
2987.75, 0.0225
2987.88, 0.0232
2988, 0.0238
2988.12, 0.0237
2988.25, 0.0229
2988.38, 0.0225
2988.5, 0.0229
2988.62, 0.0235
2988.75, 0.0236
2988.88, 0.0229
2989, 0.0221
2989.12, 0.0221
2989.25, 0.023
2989.38, 0.0238
2989.5, 0.0239
2989.62, 0.0236
2989.75, 0.0238
2989.88, 0.0249
2990, 0.0257
2990.12, 0.0252
2990.25, 0.0238
2990.38, 0.0226
2990.5, 0.0224
2990.62, 0.0229
2990.75, 0.0233
2990.88, 0.0233
2991, 0.0231
2991.12, 0.023
2991.25, 0.0231
2991.38, 0.0229
2991.5, 0.0224
2991.62, 0.0219
2991.75, 0.0222
2991.88, 0.0231
2992, 0.0238
2992.12, 0.0235
2992.25, 0.0227
2992.38, 0.0225
2992.5, 0.0232
2992.62, 0.024
2992.75, 0.024
2992.88, 0.0232
2993, 0.0223
2993.12, 0.0221
2993.25, 0.0227
2993.38, 0.0236
2993.5, 0.0241
2993.62, 0.0239
2993.75, 0.0238
2993.88, 0.0242
2994, 0.0247
2994.12, 0.0245
2994.25, 0.0233
2994.38, 0.0222
2994.5, 0.022
2994.62, 0.0227
2994.75, 0.0234
2994.88, 0.0235
2995, 0.0232
2995.12, 0.0229
2995.25, 0.0233
2995.38, 0.026
2995.5, 0.0325
2995.62, 0.0423
2995.75, 0.0508
2995.88, 0.0524
2996, 0.0458
2996.12, 0.0356
2996.25, 0.0278
2996.38, 0.0241
2996.5, 0.0229
2996.62, 0.0226
2996.75, 0.023
2996.88, 0.0237
2997, 0.0237
2997.12, 0.0233
2997.25, 0.0238
2997.38, 0.0251
2997.5, 0.0271
2997.62, 0.033
2997.75, 0.049
2997.88, 0.0756
2998, 0.1005
2998.12, 0.1055
2998.25, 0.086
2998.38, 0.0576
2998.5, 0.0366
2998.62, 0.0277
2998.75, 0.0261
2998.88, 0.0259
2999, 0.0253
2999.12, 0.0246
2999.25, 0.0243
2999.38, 0.0244
2999.5, 0.0247
2999.62, 0.0247
2999.75, 0.0243
2999.88, 0.024
3000, 0.0245
3000.12, 0.0253
3000.25, 0.0252
3000.38, 0.0241
3000.5, 0.023
3000.62, 0.0228
3000.75, 0.0234
3000.88, 0.0238
3001, 0.0237
3001.12, 0.0233
3001.25, 0.0233
3001.38, 0.0238
3001.5, 0.0243
3001.62, 0.0244
3001.75, 0.0239
3001.88, 0.0233
3002, 0.023
3002.12, 0.0232
3002.25, 0.0235
3002.38, 0.0235
3002.5, 0.0233
3002.62, 0.0232
3002.75, 0.0234
3002.88, 0.0236
3003, 0.0236
3003.12, 0.0235
3003.25, 0.0237
3003.38, 0.0241
3003.5, 0.024
3003.62, 0.0232
3003.75, 0.0221
3003.88, 0.0218
3004, 0.0224
3004.12, 0.0235
3004.25, 0.0243
3004.38, 0.0245
3004.5, 0.0239
3004.62, 0.0234
3004.75, 0.0236
3004.88, 0.0243
3005, 0.0246
3005.12, 0.0241
3005.25, 0.0234
3005.38, 0.0232
3005.5, 0.0235
3005.62, 0.0236
3005.75, 0.0232
3005.88, 0.023
3006, 0.0232
3006.12, 0.0238
3006.25, 0.0243
3006.38, 0.0245
3006.5, 0.0242
3006.62, 0.0236
3006.75, 0.0233
3006.88, 0.0234
3007, 0.0238
3007.12, 0.0238
3007.25, 0.0237
3007.38, 0.0241
3007.5, 0.0247
3007.62, 0.0249
3007.75, 0.0242
3007.88, 0.0231
3008, 0.0228
3008.12, 0.0233
3008.25, 0.024
3008.38, 0.0241
3008.5, 0.0236
3008.62, 0.0233
3008.75, 0.0236
3008.88, 0.0245
3009, 0.0248
3009.12, 0.024
3009.25, 0.0229
3009.38, 0.0224
3009.5, 0.023
3009.62, 0.0236
3009.75, 0.0238
3009.88, 0.0238
3010, 0.0241
3010.12, 0.0245
3010.25, 0.0246
3010.38, 0.0243
3010.5, 0.024
3010.62, 0.0236
3010.75, 0.0233
3010.88, 0.0232
3011, 0.0234
3011.12, 0.0234
3011.25, 0.0228
3011.38, 0.0222
3011.5, 0.0222
3011.62, 0.0235
3011.75, 0.0265
3011.88, 0.0313
3012, 0.0372
3012.12, 0.0412
3012.25, 0.0405
3012.38, 0.0354
3012.5, 0.0294
3012.62, 0.0259
3012.75, 0.0245
3012.88, 0.0236
3013, 0.0224
3013.12, 0.0219
3013.25, 0.0222
3013.38, 0.0226
3013.5, 0.023
3013.62, 0.0238
3013.75, 0.0248
3013.88, 0.0259
3014, 0.0299
3014.12, 0.0413
3014.25, 0.06
3014.38, 0.0763
3014.5, 0.0778
3014.62, 0.063
3014.75, 0.0434
3014.88, 0.0305
3015, 0.0262
3015.12, 0.0255
3015.25, 0.0246
3015.38, 0.0233
3015.5, 0.023
3015.62, 0.0233
3015.75, 0.0236
3015.88, 0.0239
3016, 0.0242
3016.12, 0.0241
3016.25, 0.0236
3016.38, 0.0233
3016.5, 0.0234
3016.62, 0.0234
3016.75, 0.0231
3016.88, 0.0231
3017, 0.0235
3017.12, 0.0239
3017.25, 0.0238
3017.38, 0.0233
3017.5, 0.0229
3017.62, 0.0228
3017.75, 0.023
3017.88, 0.0233
3018, 0.0238
3018.12, 0.0242
3018.25, 0.0241
3018.38, 0.024
3018.5, 0.024
3018.62, 0.0241
3018.75, 0.0241
3018.88, 0.0241
3019, 0.0242
3019.12, 0.0242
3019.25, 0.0241
3019.38, 0.0239
3019.5, 0.0237
3019.62, 0.0237
3019.75, 0.0237
3019.88, 0.0238
3020, 0.0241
3020.12, 0.0244
3020.25, 0.0245
3020.38, 0.0244
3020.5, 0.024
3020.62, 0.0234
3020.75, 0.0228
3020.88, 0.0227
3021, 0.0231
3021.12, 0.0234
3021.25, 0.0235
3021.38, 0.0235
3021.5, 0.0234
3021.62, 0.0235
3021.75, 0.0237
3021.88, 0.0241
3022, 0.0245
3022.12, 0.0247
3022.25, 0.0243
3022.38, 0.024
3022.5, 0.024
3022.62, 0.0244
3022.75, 0.0245
3022.88, 0.0243
3023, 0.0241
3023.12, 0.0241
3023.25, 0.0243
3023.38, 0.0243
3023.5, 0.0242
3023.62, 0.0242
3023.75, 0.0245
3023.88, 0.0249
3024, 0.0249
3024.12, 0.0243
3024.25, 0.0235
3024.38, 0.0227
3024.5, 0.0223
3024.62, 0.0219
3024.75, 0.0216
3024.88, 0.0217
3025, 0.0222
3025.12, 0.0228
3025.25, 0.0234
3025.38, 0.0239
3025.5, 0.0241
3025.62, 0.0241
3025.75, 0.0243
3025.88, 0.0249
3026, 0.0254
3026.12, 0.0251
3026.25, 0.0242
3026.38, 0.0237
3026.5, 0.0242
3026.62, 0.0252
3026.75, 0.0256
3026.88, 0.025
3027, 0.0241
3027.12, 0.0236
3027.25, 0.0238
3027.38, 0.0252
3027.5, 0.0279
3027.62, 0.0313
3027.75, 0.034
3027.88, 0.0343
3028, 0.0319
3028.12, 0.0283
3028.25, 0.0255
3028.38, 0.0245
3028.5, 0.0244
3028.62, 0.0243
3028.75, 0.0242
3028.88, 0.0242
3029, 0.0242
3029.12, 0.0238
3029.25, 0.0234
3029.38, 0.0235
3029.5, 0.0239
3029.62, 0.0255
3029.75, 0.0304
3029.88, 0.0401
3030, 0.0514
3030.12, 0.0565
3030.25, 0.0511
3030.38, 0.0393
3030.5, 0.0294
3030.62, 0.0251
3030.75, 0.025
3030.88, 0.0255
3031, 0.0254
3031.12, 0.0251
3031.25, 0.0248
3031.38, 0.0245
3031.5, 0.0241
3031.62, 0.0239
3031.75, 0.024
3031.88, 0.0242
3032, 0.0245
3032.12, 0.0246
3032.25, 0.0245
3032.38, 0.0241
3032.5, 0.0238
3032.62, 0.024
3032.75, 0.0244
3032.88, 0.0248
3033, 0.025
3033.12, 0.0248
3033.25, 0.0242
3033.38, 0.0238
3033.5, 0.0237
3033.62, 0.0235
3033.75, 0.0227
3033.88, 0.0216
3034, 0.0211
3034.12, 0.0217
3034.25, 0.0229
3034.38, 0.0239
3034.5, 0.0242
3034.62, 0.024
3034.75, 0.0235
3034.88, 0.0231
3035, 0.0227
3035.12, 0.0225
3035.25, 0.0225
3035.38, 0.0227
3035.5, 0.023
3035.62, 0.0231
3035.75, 0.0229
3035.88, 0.0227
3036, 0.0229
3036.12, 0.0235
3036.25, 0.0241
3036.38, 0.0247
3036.5, 0.025
3036.62, 0.0247
3036.75, 0.0241
3036.88, 0.0237
3037, 0.0239
3037.12, 0.0244
3037.25, 0.0245
3037.38, 0.0244
3037.5, 0.0244
3037.62, 0.0247
3037.75, 0.0246
3037.88, 0.0239
3038, 0.0232
3038.12, 0.0232
3038.25, 0.0239
3038.38, 0.0245
3038.5, 0.0245
3038.62, 0.0237
3038.75, 0.0229
3038.88, 0.0229
3039, 0.0238
3039.12, 0.0248
3039.25, 0.0249
3039.38, 0.0243
3039.5, 0.0237
3039.62, 0.0236
3039.75, 0.0237
3039.88, 0.0235
3040, 0.0229
3040.12, 0.0225
3040.25, 0.0225
3040.38, 0.0229
3040.5, 0.0233
3040.62, 0.0233
3040.75, 0.0233
3040.88, 0.0235
3041, 0.0238
3041.12, 0.0238
3041.25, 0.0232
3041.38, 0.0224
3041.5, 0.0222
3041.62, 0.0226
3041.75, 0.0232
3041.88, 0.0234
3042, 0.0233
3042.12, 0.0229
3042.25, 0.0225
3042.38, 0.0228
3042.5, 0.0246
3042.62, 0.0272
3042.75, 0.029
3042.88, 0.0289
3043, 0.0275
3043.12, 0.0261
3043.25, 0.0252
3043.38, 0.0244
3043.5, 0.0237
3043.62, 0.0235
3043.75, 0.0239
3043.88, 0.0242
3044, 0.0236
3044.12, 0.0227
3044.25, 0.0224
3044.38, 0.0227
3044.5, 0.0235
3044.62, 0.025
3044.75, 0.0285
3044.88, 0.0342
3045, 0.0396
3045.12, 0.041
3045.25, 0.0371
3045.38, 0.0304
3045.5, 0.0252
3045.62, 0.0233
3045.75, 0.0234
3045.88, 0.0236
3046, 0.0234
3046.12, 0.0231
3046.25, 0.0231
3046.38, 0.0235
3046.5, 0.024
3046.62, 0.0245
3046.75, 0.0248
3046.88, 0.0246
3047, 0.0245
3047.12, 0.0244
3047.25, 0.0242
3047.38, 0.0238
3047.5, 0.0234
3047.62, 0.0234
3047.75, 0.0238
3047.88, 0.0239
3048, 0.0236
3048.12, 0.0231
3048.25, 0.0229
3048.38, 0.0232
3048.5, 0.0239
3048.62, 0.0243
3048.75, 0.024
3048.88, 0.0232
3049, 0.0228
3049.12, 0.0231
3049.25, 0.0235
3049.38, 0.0235
3049.5, 0.0234
3049.62, 0.0237
3049.75, 0.0242
3049.88, 0.0245
3050, 0.0242
3050.12, 0.0237
3050.25, 0.0234
3050.38, 0.0235
3050.5, 0.0238
3050.62, 0.0238
3050.75, 0.0235
3050.88, 0.0228
3051, 0.0225
3051.12, 0.0229
3051.25, 0.0237
3051.38, 0.0241
3051.5, 0.0239
3051.62, 0.0235
3051.75, 0.0233
3051.88, 0.0235
3052, 0.0237
3052.12, 0.0236
3052.25, 0.0233
3052.38, 0.0229
3052.5, 0.0228
3052.62, 0.0231
3052.75, 0.0236
3052.88, 0.0238
3053, 0.0237
3053.12, 0.0239
3053.25, 0.0243
3053.38, 0.0244
3053.5, 0.024
3053.62, 0.0236
3053.75, 0.0239
3053.88, 0.0247
3054, 0.0251
3054.12, 0.0248
3054.25, 0.0241
3054.38, 0.0236
3054.5, 0.0235
3054.62, 0.0234
3054.75, 0.0232
3054.88, 0.0228
3055, 0.0227
3055.12, 0.0232
3055.25, 0.0241
3055.38, 0.0247
3055.5, 0.0245
3055.62, 0.0238
3055.75, 0.0232
3055.88, 0.0234
3056, 0.0241
3056.12, 0.0247
3056.25, 0.0248
3056.38, 0.0243
3056.5, 0.0237
3056.62, 0.0236
3056.75, 0.0243
3056.88, 0.0252
3057, 0.0256
3057.12, 0.0251
3057.25, 0.024
3057.38, 0.0233
3057.5, 0.0232
3057.62, 0.0234
3057.75, 0.0234
3057.88, 0.0233
3058, 0.0237
3058.12, 0.0245
3058.25, 0.0251
3058.38, 0.0251
3058.5, 0.0248
3058.62, 0.0248
3058.75, 0.0254
3058.88, 0.0263
3059, 0.0277
3059.12, 0.03
3059.25, 0.0324
3059.38, 0.033
3059.5, 0.031
3059.62, 0.0275
3059.75, 0.0247
3059.88, 0.0238
3060, 0.0238
3060.12, 0.0235
3060.25, 0.0228
3060.38, 0.0222
3060.5, 0.0223
3060.62, 0.0229
3060.75, 0.0235
3060.88, 0.0239
3061, 0.0238
3061.12, 0.0237
3061.25, 0.024
3061.38, 0.0247
3061.5, 0.0252
3061.62, 0.0251
3061.75, 0.0247
3061.88, 0.0243
3062, 0.024
3062.12, 0.0239
3062.25, 0.024
3062.38, 0.0244
3062.5, 0.0249
3062.62, 0.0254
3062.75, 0.0258
3062.88, 0.0256
3063, 0.0247
3063.12, 0.0233
3063.25, 0.0224
3063.38, 0.0223
3063.5, 0.023
3063.62, 0.0235
3063.75, 0.0238
3063.88, 0.024
3064, 0.0243
3064.12, 0.0244
3064.25, 0.024
3064.38, 0.0233
3064.5, 0.0231
3064.62, 0.0235
3064.75, 0.0242
3064.88, 0.0245
3065, 0.0242
3065.12, 0.0237
3065.25, 0.0234
3065.38, 0.0234
3065.5, 0.0234
3065.62, 0.0231
3065.75, 0.0228
3065.88, 0.0227
3066, 0.023
3066.12, 0.0233
3066.25, 0.0233
3066.38, 0.0228
3066.5, 0.022
3066.62, 0.0215
3066.75, 0.0217
3066.88, 0.0224
3067, 0.0232
3067.12, 0.0235
3067.25, 0.0233
3067.38, 0.0232
3067.5, 0.0237
3067.62, 0.0244
3067.75, 0.0245
3067.88, 0.0239
3068, 0.0232
3068.12, 0.0231
3068.25, 0.0236
3068.38, 0.0242
3068.5, 0.0245
3068.62, 0.0244
3068.75, 0.0241
3068.88, 0.0237
3069, 0.0234
3069.12, 0.023
3069.25, 0.0229
3069.38, 0.0229
3069.5, 0.0232
3069.62, 0.0234
3069.75, 0.0234
3069.88, 0.0234
3070, 0.0236
3070.12, 0.0239
3070.25, 0.0243
3070.38, 0.0245
3070.5, 0.0248
3070.62, 0.025
3070.75, 0.0253
3070.88, 0.0252
3071, 0.0248
3071.12, 0.0242
3071.25, 0.0239
3071.38, 0.024
3071.5, 0.0244
3071.62, 0.0248
3071.75, 0.0248
3071.88, 0.0245
3072, 0.0242
3072.12, 0.024
3072.25, 0.0241
3072.38, 0.0242
3072.5, 0.0244
3072.62, 0.025
3072.75, 0.0258
3072.88, 0.0263
3073, 0.0263
3073.12, 0.026
3073.25, 0.0258
3073.38, 0.0258
3073.5, 0.0256
3073.62, 0.0248
3073.75, 0.0239
3073.88, 0.0235
3074, 0.0236
3074.12, 0.0237
3074.25, 0.0238
3074.38, 0.0241
3074.5, 0.0244
3074.62, 0.0246
3074.75, 0.0247
3074.88, 0.025
3075, 0.0253
3075.12, 0.0254
3075.25, 0.025
3075.38, 0.0244
3075.5, 0.0238
3075.62, 0.023
3075.75, 0.0224
3075.88, 0.0223
3076, 0.0228
3076.12, 0.0236
3076.25, 0.0242
3076.38, 0.0243
3076.5, 0.0243
3076.62, 0.024
3076.75, 0.0236
3076.88, 0.0233
3077, 0.0233
3077.12, 0.0236
3077.25, 0.0236
3077.38, 0.0234
3077.5, 0.0231
3077.62, 0.0229
3077.75, 0.0227
3077.88, 0.0226
3078, 0.0229
3078.12, 0.0234
3078.25, 0.0237
3078.38, 0.0237
3078.5, 0.0236
3078.62, 0.0237
3078.75, 0.0239
3078.88, 0.0238
3079, 0.0234
3079.12, 0.0233
3079.25, 0.0235
3079.38, 0.0239
3079.5, 0.024
3079.62, 0.0238
3079.75, 0.0235
3079.88, 0.0232
3080, 0.0228
3080.12, 0.0223
3080.25, 0.0218
3080.38, 0.0218
3080.5, 0.0222
3080.62, 0.023
3080.75, 0.0235
3080.88, 0.0235
3081, 0.023
3081.12, 0.0225
3081.25, 0.0223
3081.38, 0.0222
3081.5, 0.0223
3081.62, 0.0224
3081.75, 0.0227
3081.88, 0.0232
3082, 0.0238
3082.12, 0.0241
3082.25, 0.0243
3082.38, 0.0243
3082.5, 0.0247
3082.62, 0.0254
3082.75, 0.0259
3082.88, 0.0256
3083, 0.0246
3083.12, 0.0239
3083.25, 0.0239
3083.38, 0.0242
3083.5, 0.024
3083.62, 0.0231
3083.75, 0.0223
3083.88, 0.0222
3084, 0.0228
3084.12, 0.0234
3084.25, 0.0236
3084.38, 0.0234
3084.5, 0.0232
3084.62, 0.0234
3084.75, 0.0242
3084.88, 0.0249
3085, 0.0248
3085.12, 0.0242
3085.25, 0.0239
3085.38, 0.0242
3085.5, 0.0248
3085.62, 0.0251
3085.75, 0.0247
3085.88, 0.0239
3086, 0.0231
3086.12, 0.0224
3086.25, 0.022
3086.38, 0.0221
3086.5, 0.0224
3086.62, 0.0231
3086.75, 0.0242
3086.88, 0.0255
3087, 0.0261
3087.12, 0.0256
3087.25, 0.0245
3087.38, 0.024
3087.5, 0.0241
3087.62, 0.0244
3087.75, 0.0242
3087.88, 0.0237
3088, 0.0233
3088.12, 0.0231
3088.25, 0.0231
3088.38, 0.0234
3088.5, 0.024
3088.62, 0.0246
3088.75, 0.0249
3088.88, 0.0249
3089, 0.0247
3089.12, 0.0245
3089.25, 0.0246
3089.38, 0.0251
3089.5, 0.0258
3089.62, 0.0259
3089.75, 0.0251
3089.88, 0.0241
3090, 0.0233
3090.12, 0.023
3090.25, 0.0228
3090.38, 0.0227
3090.5, 0.0229
3090.62, 0.0233
3090.75, 0.0235
3090.88, 0.0236
3091, 0.0236
3091.12, 0.0236
3091.25, 0.0237
3091.38, 0.0242
3091.5, 0.025
3091.62, 0.0255
3091.75, 0.0251
3091.88, 0.0242
3092, 0.0237
3092.12, 0.0237
3092.25, 0.0239
3092.38, 0.0241
3092.5, 0.0243
3092.62, 0.0246
3092.75, 0.0248
3092.88, 0.0248
3093, 0.0247
3093.12, 0.0246
3093.25, 0.0243
3093.38, 0.024
3093.5, 0.0239
3093.62, 0.0237
3093.75, 0.0233
3093.88, 0.0231
3094, 0.0234
3094.12, 0.0243
3094.25, 0.0248
3094.38, 0.0245
3094.5, 0.0241
3094.62, 0.0241
3094.75, 0.0247
3094.88, 0.025
3095, 0.0247
3095.12, 0.024
3095.25, 0.0235
3095.38, 0.0237
3095.5, 0.0242
3095.62, 0.0248
3095.75, 0.0249
3095.88, 0.0244
3096, 0.0237
3096.12, 0.0235
3096.25, 0.0237
3096.38, 0.0239
3096.5, 0.0235
3096.62, 0.0229
3096.75, 0.0229
3096.88, 0.0236
3097, 0.0244
3097.12, 0.0246
3097.25, 0.0242
3097.38, 0.0237
3097.5, 0.0236
3097.62, 0.0239
3097.75, 0.0242
3097.88, 0.024
3098, 0.0237
3098.12, 0.0237
3098.25, 0.0244
3098.38, 0.0248
3098.5, 0.0242
3098.62, 0.0227
3098.75, 0.0216
3098.88, 0.0219
3099, 0.0232
3099.12, 0.0244
3099.25, 0.0247
3099.38, 0.0246
3099.5, 0.0245
3099.62, 0.0246
3099.75, 0.0245
3099.88, 0.0241
3100, 0.0238